Filename:	Stare_213_20211001_18.hpl
System ID:	213
Number of gates:	3000
Range gate length (m):	90.0
Gate length (pts):	30
Pulses/ray:	10000
No. of rays in file:	1
Scan type:	Stare - overlapping
Focus range:	65535
Start time:	20211001 18:00:25.01
Resolution (m/s):	0.0382
Altitude of measurement (center of gate) = (range gate + 0.5) * Gate length
Data line 1: Decimal time (hours)  Azimuth (degrees)  Elevation (degrees) Pitch (degrees) Roll (degrees)
f9.6,1x,f6.2,1x,f6.2
Data line 2: Range Gate  Doppler (m/s)  Intensity (SNR + 1)  Beta (m-1 sr-1)
i3,1x,f6.4,1x,f8.6,1x,e12.6 - repeat for no. gates
****
18.00664167  90.01  90.00 0.50 -0.20
  0 -0.3440 0.981046 -1.068919E-6 
  1 -0.4204 0.980066 -1.124379E-6 
  2 -0.4204 0.977840 -1.250173E-6 
  3 -0.4204 0.979090 -1.179886E-6 
  4 -0.4586 0.981890 -1.022118E-6 
  5 -0.4204 0.985351 -8.269465E-7 
  6 -0.3822 0.988714 -6.372237E-7 
  7 -0.2675 0.991833 -4.612324E-7 
  8 -0.1529 0.993727 -3.543607E-7 
  9 0.0000 0.996067 -2.222009E-7 
 10 0.0764 0.998584 -8.003541E-8 
 11 0.1529 1.000454  2.568065E-8 
 12 0.1911 1.001089  6.158783E-8 
 13 0.1911 1.001432  8.098211E-8 
 14 0.1911 1.002380  1.346671E-7 
 15 0.1529 1.003172  1.794969E-7 
 16 0.1147 1.004149  2.348731E-7 
 17 0.1147 1.005096  2.885361E-7 
 18 0.1147 1.005932  3.359894E-7 
 19 0.1147 1.006051  3.428340E-7 
 20 0.1147 1.006115  3.465752E-7 
 21 0.1147 1.006019  3.412063E-7 
 22 0.0382 1.006871  3.896377E-7 
 23 0.0382 1.008243  4.676264E-7 
 24 0.0000 1.021485  1.219290E-6 
 25 -0.0764 1.023542  1.336491E-6 
 26 -0.0764 1.023301  1.323266E-6 
 27 -0.1147 1.022796  1.295073E-6 
 28 -0.1147 1.022481  1.277605E-6 
 29 -0.1147 1.021944  1.247597E-6 
 30 -0.1147 1.022017  1.252222E-6 
 31 -0.1147 1.022270  1.267093E-6 
 32 -0.1147 1.023501  1.337676E-6 
 33 -0.1147 1.024069  1.370566E-6 
 34 -0.1147 1.024138  1.375051E-6 
 35 -0.1147 1.024028  1.369341E-6 
 36 -0.1147 1.023908  1.363130E-6 
 37 -0.1147 1.023598  1.346020E-6 
 38 -0.1529 1.023244  1.326392E-6 
 39 -0.1147 1.022729  1.297612E-6 
 40 -0.1147 1.022489  1.284471E-6 
 41 -0.1529 1.022336  1.276343E-6 
 42 -0.1529 1.022255  1.272288E-6 
 43 -0.1147 1.021818  1.247878E-6 
 44 -0.1147 1.022049  1.261712E-6 
 45 -0.1147 1.022604  1.294103E-6 
 46 -0.1147 1.022098  1.265777E-6 
 47 -0.1147 1.022313  1.278700E-6 
 48 -0.0764 1.022143  1.269658E-6 
 49 -0.0764 1.022489  1.290114E-6 
 50 -0.0764 1.022685  1.302086E-6 
 51 -0.0382 1.023417  1.344765E-6 
 52 -0.0382 1.023046  1.324171E-6 
 53 -0.0764 1.022961  1.320002E-6 
 54 -0.1147 1.023267  1.338345E-6 
 55 -0.0764 1.022734  1.308416E-6 
 56 -0.0382 1.022295  1.283906E-6 
 57 -0.0764 1.022880  1.318291E-6 
 58 -0.0764 1.022365  1.289405E-6 
 59 -0.0764 1.022329  1.288041E-6 
 60 -0.1147 1.022767  1.314121E-6 
 61 -0.1147 1.022238  1.284332E-6 
 62 -0.1147 1.022067  1.275259E-6 
 63 -0.1147 1.022105  1.278185E-6 
 64 -0.1147 1.021795  1.261089E-6 
 65 -0.1529 1.022080  1.278380E-6 
 66 -0.1147 1.022302  1.292000E-6 
 67 -0.1147 1.022266  1.290752E-6 
 68 -0.1147 1.023233  1.347684E-6 
 69 -0.1147 1.023351  1.355388E-6 
 70 -0.0764 1.024055  1.397217E-6 
 71 -0.0764 1.023214  1.349263E-6 
 72 -0.0764 1.022874  1.330393E-6 
 73 -0.1147 1.023247  1.352982E-6 
 74 -0.1147 1.022966  1.337537E-6 
 75 -0.1147 1.022846  1.331487E-6 
 76 -0.0764 1.023010  1.341972E-6 
 77 -0.1147 1.022354  1.304647E-6 
 78 -0.1147 1.021707  1.267760E-6 
 79 -0.1147 1.021679  1.267012E-6 
 80 -0.1147 1.021609  1.263881E-6 
 81 -0.1147 1.020712  1.212284E-6 
 82 -0.1147 1.021103  1.236086E-6 
 83 -0.1147 1.021214  1.243478E-6 
 84 -0.1147 1.020943  1.228532E-6 
 85 -0.1529 1.021445  1.258926E-6 
 86 -0.1529 1.021362  1.255024E-6 
 87 -0.1529 1.021058  1.238127E-6 
 88 -0.1147 1.021585  1.270050E-6 
 89 -0.1147 1.021244  1.250979E-6 
 90 -0.1147 1.020527  1.209698E-6 
 91 -0.0764 1.020379  1.201954E-6 
 92 -0.1147 1.019862  1.172355E-6 
 93 -0.0764 1.019758  1.167189E-6 
 94 -0.1147 1.020255  1.197537E-6 
 95 -0.1147 1.020175  1.193765E-6 
 96 -0.1147 1.019725  1.168075E-6 
 97 -0.1147 1.019563  1.159446E-6 
 98 -0.1147 1.018755  1.112489E-6 
 99 -0.1529 1.018924  1.123491E-6 
100 -0.1529 1.017956  1.066948E-6 
101 -0.1911 1.018897  1.123789E-6 
102 -0.1911 1.019120  1.138038E-6 
103 -0.1911 1.018228  1.085917E-6 
104 -0.1911 1.018498  1.102967E-6 
105 -0.1911 1.019110  1.140425E-6 
106 -0.1911 1.019192  1.146333E-6 
107 -0.1911 1.020015  1.196580E-6 
108 -0.1911 1.020474  1.225137E-6 
109 -0.1911 1.020258  1.213282E-6 
110 -0.1911 1.021267  1.274894E-6 
111 -0.1911 1.021517  1.291063E-6 
112 -0.2293 1.021109  1.267763E-6 
113 -0.2293 1.021531  1.294257E-6 
114 -0.2675 1.022054  1.326943E-6 
115 -0.2675 1.022418  1.350119E-6 
116 -0.2675 1.023377  1.409240E-6 
117 -0.2675 1.024470  1.476506E-6 
118 -0.2675 1.024207  1.462060E-6 
119 -0.2293 1.024983  1.510355E-6 
120 -0.2293 1.024440  1.478968E-6 
121 -0.2293 1.025040  1.516786E-6 
122 -0.1911 1.024975  1.514354E-6 
123 -0.2293 1.025288  1.534835E-6 
124 -0.2293 1.025532  1.551149E-6 
125 -0.1911 1.024929  1.516078E-6 
126 -0.1911 1.024915  1.516749E-6 
127 -0.1911 1.025037  1.525706E-6 
128 -0.1911 1.025834  1.575881E-6 
129 -0.1911 1.025667  1.567258E-6 
130 -0.1911 1.025744  1.573594E-6 
131 -0.1911 1.025397  1.553997E-6 
132 -0.1529 1.025829  1.582062E-6 
133 -0.1529 1.026580  1.629802E-6 
134 -0.1529 1.026630  1.634548E-6 
135 -0.1147 1.025760  1.582817E-6 
136 -0.1529 1.025650  1.577748E-6 
137 -0.1147 1.024815  1.528008E-6 
138 -0.1147 1.025220  1.554613E-6 
139 -0.1147 1.024998  1.542623E-6 
140 -0.1147 1.024012  1.483381E-6 
141 -0.0764 1.024573  1.519665E-6 
142 -0.0764 1.023377  1.447326E-6 
143 -0.0764 1.023133  1.433791E-6 
144 -0.0764 1.023068  1.431317E-6 
145 -0.0764 1.022552  1.400853E-6 
146 -0.0764 1.021845  1.358514E-6 
147 -0.0764 1.020363  1.267751E-6 
148 -0.0764 1.020762  1.294022E-6 
149 -0.1147 1.020633  1.287446E-6 
150 -0.1147 1.021298  1.330448E-6 
151 -0.1147 1.021365  1.336209E-6 
152 -0.1147 1.021473  1.344482E-6 
153 -0.1147 1.021385  1.340555E-6 
154 -0.0764 1.020332  1.275974E-6 
155 -0.1147 1.020262  1.273069E-6 
156 -0.0764 1.020864  1.312432E-6 
157 -0.0764 1.020968  1.320539E-6 
158 -0.0764 1.020378  1.284910E-6 
159 -0.0764 1.020336  1.283778E-6 
160 -0.1147 1.020998  1.327140E-6 
161 -0.1147 1.021132  1.337263E-6 
162 -0.0764 1.021150  1.339952E-6 
163 -0.1147 1.021049  1.335196E-6 
164 -0.1147 1.021469  1.363464E-6 
165 -0.1529 1.021705  1.380178E-6 
166 -0.1529 1.022494  1.432064E-6 
167 -0.1911 1.022691  1.446406E-6 
168 -0.1911 1.023014  1.468800E-6 
169 -0.1911 1.023561  1.505573E-6 
170 -0.2293 1.023307  1.491205E-6 
171 -0.2293 1.022567  1.445683E-6 
172 -0.2293 1.023766  1.524362E-6 
173 -0.2293 1.023566  1.513445E-6 
174 -0.2293 1.023614  1.518446E-6 
175 -0.2293 1.023606  1.519841E-6 
176 -0.2675 1.023564  1.519117E-6 
177 -0.2675 1.023817  1.537374E-6 
178 -0.3058 1.022889  1.479370E-6 
179 -0.3058 1.022617  1.463650E-6 
180 -0.3440 1.022604  1.464684E-6 
181 -0.3440 1.022293  1.446458E-6 
182 -0.3822 1.022402  1.455388E-6 
183 -0.3822 1.022726  1.478370E-6 
184 -0.3822 1.023064  1.502354E-6 
185 -0.4204 1.024096  1.571654E-6 
186 -0.4204 1.023552  1.538203E-6 
187 -0.4204 1.023348  1.526882E-6 
188 -0.4204 1.023482  1.537667E-6 
189 -0.4204 1.023732  1.556121E-6 
190 -0.4586 1.023662  1.553582E-6 
191 -0.4586 1.023197  1.525136E-6 
192 -0.4586 1.022755  1.498089E-6 
193 -0.4586 1.023154  1.526444E-6 
194 -0.4586 1.023412  1.545525E-6 
195 -0.4586 1.023701  1.566711E-6 
196 -0.4586 1.023240  1.538363E-6 
197 -0.4586 1.023307  1.544905E-6 
198 -0.4586 1.022862  1.517524E-6 
199 -0.4586 1.022465  1.493228E-6 
200 -0.4204 1.023108  1.538103E-6 
201 -0.4204 1.024098  1.606184E-6 
202 -0.4204 1.024521  1.636647E-6 
203 -0.3822 1.024611  1.644991E-6 
204 -0.3822 1.024306  1.626886E-6 
205 -0.3822 1.024092  1.614834E-6 
206 -0.3822 1.024288  1.630282E-6 
207 -0.3822 1.024780  1.665611E-6 
208 -0.3440 1.025285  1.701964E-6 
209 -0.3440 1.025777  1.737560E-6 
210 -0.3440 1.025713  1.735727E-6 
211 -0.3440 1.025902  1.751037E-6 
212 -0.3440 1.025666  1.737538E-6 
213 -0.3440 1.025323  1.716781E-6 
214 -0.3058 1.025080  1.702801E-6 
215 -0.3058 1.024844  1.689167E-6 
216 -0.2675 1.024805  1.689018E-6 
217 -0.2675 1.024882  1.696731E-6 
218 -0.2675 1.025121  1.715514E-6 
219 -0.2675 1.025346  1.733435E-6 
220 -0.3058 1.024079  1.649173E-6 
221 -0.3058 1.024179  1.658464E-6 
222 -0.3058 1.025158  1.728203E-6 
223 -0.3058 1.024741  1.702063E-6 
224 -0.3058 1.023786  1.638781E-6 
225 -0.3058 1.023368  1.612348E-6 
226 -0.3440 1.023387  1.616083E-6 
227 -0.3440 1.022340  1.546080E-6 
228 -0.3822 1.022013  1.525722E-6 
229 -0.3822 1.022661  1.572998E-6 
230 -0.3822 1.022264  1.547788E-6 
231 -0.3822 1.021681  1.509535E-6 
232 -0.3822 1.021294  1.484814E-6 
233 -0.3822 1.021348  1.490825E-6 
234 -0.3822 1.021177  1.481175E-6 
235 -0.4204 1.020726  1.451855E-6 
236 -0.4204 1.020862  1.463615E-6 
237 -0.4204 1.020452  1.436999E-6 
238 -0.4204 1.019641  1.382185E-6 
239 -0.3822 1.019690  1.387724E-6 
240 -0.3822 1.019526  1.378328E-6 
241 -0.3822 1.019213  1.358355E-6 
242 -0.3822 1.019184  1.358393E-6 
243 -0.3822 1.018782  1.331960E-6 
244 -0.3822 1.018461  1.311288E-6 
245 -0.3822 1.018093  1.287158E-6 
246 -0.3440 1.017815  1.269344E-6 
247 -0.3440 1.017546  1.252119E-6 
248 -0.3440 1.017825  1.274061E-6 
249 -0.3440 1.017277  1.236842E-6 
250 -0.3440 1.017956  1.287476E-6 
251 -0.3440 1.017985  1.291627E-6 
252 -0.3440 1.016996  1.222500E-6 
253 -0.3058 1.017229  1.241244E-6 
254 -0.2675 1.017155  1.237865E-6 
255 -0.2675 1.017313  1.251274E-6 
256 -0.3058 1.017259  1.249404E-6 
257 -0.3058 1.018017  1.306356E-6 
258 -0.3058 1.018215  1.322828E-6 
259 -0.3058 1.017885  1.300993E-6 
260 -0.3058 1.017744  1.292782E-6 
261 -0.3058 1.018682  1.363295E-6 
262 -0.3058 1.018559  1.356522E-6 
263 -0.3058 1.018582  1.360459E-6 
264 -0.3058 1.018919  1.387389E-6 
265 -0.3058 1.019403  1.425174E-6 
266 -0.3440 1.018784  1.381949E-6 
267 -0.3058 1.019416  1.430781E-6 
268 -0.3058 1.020103  1.483833E-6 
269 -0.3058 1.019444  1.437571E-6 
270 -0.3440 1.019584  1.450311E-6 
271 -0.3058 1.019491  1.445797E-6 
272 -0.3440 1.019749  1.467373E-6 
273 -0.3058 1.020388  1.517370E-6 
274 -0.2675 1.021390  1.594581E-6 
275 -0.2675 1.021003  1.568332E-6 
276 -0.2675 1.021318  1.594454E-6 
277 -0.2675 1.021640  1.621247E-6 
278 -0.2293 1.020186  1.514873E-6 
279 -0.2675 1.020325  1.527841E-6 
280 -0.2293 1.020764  1.563482E-6 
281 -0.2293 1.020449  1.542330E-6 
282 -0.1911 1.020127  1.520551E-6 
283 -0.1529 1.019867  1.503450E-6 
284 -0.1147 1.019894  1.508083E-6 
285 -0.1147 1.019617  1.489544E-6 
286 -0.1147 1.019199  1.460283E-6 
287 -0.0764 1.019095  1.454851E-6 
288 -0.0764 1.018927  1.444468E-6 
289 -0.0382 1.018066  1.381117E-6 
290 0.0000 1.018199  1.393634E-6 
291 0.0000 1.017981  1.379357E-6 
292 0.0382 1.017094  1.313545E-6 
293 0.0382 1.016221  1.248560E-6 
294 0.0000 1.015391  1.186709E-6 
295 0.0382 1.015323  1.183532E-6 
296 0.0764 1.015848  1.226169E-6 
297 0.1147 1.015626  1.211069E-6 
298 0.1147 1.015225  1.182014E-6 
299 0.0764 1.015398  1.197491E-6 
300 0.0764 1.015515  1.208686E-6 
301 0.0382 1.015393  1.201256E-6 
302 0.0764 1.015095  1.180087E-6 
303 0.1147 1.015041  1.177900E-6 
304 0.0764 1.014468  1.135008E-6 
305 0.0764 1.015053  1.182950E-6 
306 0.1147 1.014891  1.172282E-6 
307 0.0764 1.014543  1.146836E-6 
308 0.0382 1.015350  1.212613E-6 
309 0.0382 1.014857  1.175720E-6 
310 0.0382 1.013858  1.098595E-6 
311 0.0000 1.014070  1.117345E-6 
312 0.0000 1.013956  1.110208E-6 
313 0.0000 1.013446  1.071523E-6 
314 0.0000 1.013391  1.069053E-6 
315 0.0000 1.013513  1.080731E-6 
316 -0.0382 1.013497  1.081352E-6 
317 -0.0382 1.013671  1.097189E-6 
318 -0.0764 1.013841  1.112814E-6 
319 -0.0764 1.013896  1.119223E-6 
320 -0.0764 1.014143  1.141186E-6 
321 -0.0382 1.013298  1.074892E-6 
322 -0.0382 1.013828  1.119701E-6 
323 0.0000 1.014811  1.201409E-6 
324 -0.0382 1.014413  1.171249E-6 
325 -0.0382 1.014416  1.173559E-6 
326 -0.0382 1.013812  1.126450E-6 
327 -0.0764 1.013056  1.066706E-6 
328 -0.0382 1.012900  1.055794E-6 
329 -0.0764 1.012880  1.056079E-6 
330 -0.0382 1.012429  1.020960E-6 
331 -0.0382 1.012772  1.051016E-6 
332 0.0000 1.012831  1.057728E-6 
333 -0.0382 1.012490  1.031484E-6 
334 -0.0382 1.012932  1.069936E-6 
335 -0.0382 1.012351  1.023723E-6 
336 -0.0382 1.012923  1.073035E-6 
337 -0.0382 1.012870  1.070571E-6 
338 -0.0382 1.013061  1.088442E-6 
339 0.0000 1.013067  1.090909E-6 
340 0.0382 1.013647  1.141438E-6 
341 0.0000 1.014364  1.203578E-6 
342 0.0382 1.015058  1.264028E-6 
343 0.0000 1.014941  1.256533E-6 
344 0.0764 1.014933  1.258112E-6 
345 0.0764 1.015076  1.272471E-6 
346 0.1147 1.014976  1.266327E-6 
347 0.1529 1.014942  1.265758E-6 
348 0.1147 1.014818  1.257618E-6 
349 0.0764 1.015583  1.324971E-6 
350 0.0764 1.015534  1.323183E-6 
351 0.0764 1.014954  1.276115E-6 
352 0.0764 1.014482  1.238091E-6 
353 0.1147 1.013972  1.196693E-6 
354 0.0764 1.014800  1.270018E-6 
355 0.0764 1.014629  1.257629E-6 
356 0.0382 1.014974  1.289658E-6 
357 0.0382 1.015389  1.327840E-6 
358 0.0000 1.015695  1.356768E-6 
359 0.0000 1.015480  1.340618E-6 
360 0.0000 1.015554  1.349522E-6 
361 0.0382 1.015244  1.325070E-6 
362 0.0000 1.015071  1.312473E-6 
363 -0.0382 1.014841  1.294855E-6 
364 -0.0764 1.014611  1.277131E-6 
365 -0.0382 1.014553  1.274431E-6 
366 -0.0764 1.013504  1.184827E-6 
367 -0.1147 1.013158  1.156557E-6 
368 -0.1529 1.012965  1.141763E-6 
369 -0.1529 1.013098  1.155615E-6 
370 -0.1529 1.012882  1.138704E-6 
371 -0.1911 1.011902  1.054051E-6 
372 -0.1529 1.011186  9.924801E-7 
373 -0.1911 1.010836  9.631805E-7 
374 -0.1911 1.010877  9.686418E-7 
375 -0.1529 1.010922  9.744737E-7 
376 -0.1529 1.010551  9.431979E-7 
377 -0.1529 1.010344  9.263809E-7 
378 -0.1529 1.009699  8.702967E-7 
379 -0.1147 1.008810  7.919759E-7 
380 -0.0764 1.008918  8.031740E-7 
381 -0.0382 1.009039  8.156580E-7 
382 -0.0764 1.009292  8.400061E-7 
383 0.0000 1.009179  8.313816E-7 
384 0.0382 1.008332  7.560916E-7 
385 0.0764 1.008959  8.145552E-7 
386 0.1147 1.008842  8.053981E-7 
387 0.1529 1.008499  7.756535E-7 
388 0.1529 1.007716  7.055146E-7 
389 0.1911 1.007379  6.759403E-7 
390 0.2675 1.006934  6.363748E-7 
391 0.3440 1.006784  6.237914E-7 
392 0.4204 1.006310  5.813421E-7 
393 0.4969 1.006428  5.933586E-7 
394 0.5351 1.006124  5.663136E-7 
395 0.4586 1.006154  5.701934E-7 
396 0.4969 1.006305  5.853238E-7 
397 0.4969 1.006616  6.153542E-7 
398 0.5351 1.005570  5.190369E-7 
399 0.5733 1.006009  5.609965E-7 
400 0.6497 1.005212  4.874955E-7 
401 0.5351 1.004922  4.612393E-7 
402 0.5733 1.004537  4.260048E-7 
403 0.5351 1.004494  4.227999E-7 
404 0.6497 1.004344  4.094465E-7 
405 0.7644 1.003897  3.680105E-7 
406 0.7644 1.003792  3.587907E-7 
407 0.8408 1.003189  3.022735E-7 
408 0.6497 1.004016  3.814001E-7 
409 0.6880 1.004418  4.203933E-7 
410 0.6880 1.003291  3.137414E-7 
411 0.8791 1.004036  3.855663E-7 
412 0.8408 1.004062  3.888142E-7 
413 0.8791 1.004096  3.927641E-7 
414 0.9937 1.004795  4.606505E-7 
415 0.8026 1.004010  3.860289E-7 
416 0.8791 1.003617  3.488533E-7 
417 0.8026 1.003113  3.008515E-7 
418 0.9555 1.003265  3.160698E-7 
419 -8.0263 1.003101  3.008187E-7 
420 14.6766 1.003813  3.705496E-7 
421 14.6766 1.003034  2.954534E-7 
422 14.2944 1.002875  2.804879E-7 
423 14.3327 1.002631  2.571413E-7 
424 14.4091 1.002389  2.339762E-7 
425 14.3709 1.001956  1.919369E-7 
426 14.4473 1.001890  1.858491E-7 
427 14.9060 1.001975  1.945233E-7 
428 14.8677 1.002483  2.450312E-7 
429 14.8295 1.002609  2.580474E-7 
430 14.7531 1.002983  2.955799E-7 
431 14.9060 1.002914  2.893067E-7 
432 14.8677 1.003034  3.017776E-7 
433 14.8295 1.003404  3.391928E-7 
434 15.0588 1.003356  3.351099E-7 
435 14.9442 1.002941  2.942078E-7 
436 14.9060 1.003254  3.261654E-7 
437 14.8295 1.003309  3.322848E-7 
438 -14.0651 1.002397  2.411680E-7 
439 -13.9122 1.002312  2.330684E-7 
440 -13.9887 1.003284  3.317691E-7 
441 -14.0269 1.002613  2.644151E-7 
442 -13.9887 1.002389  2.422167E-7 
443 -14.2180 1.002773  2.817914E-7 
444 -14.1798 1.002331  2.373189E-7 
445 -14.1033 1.001972  2.011730E-7 
446 15.1735 1.001801  1.840177E-7 
447 15.1353 1.001819  1.862530E-7 
448 15.3264 1.001882  1.930344E-7 
449 15.0588 1.001700  1.747756E-7 
450 15.2500 1.001239  1.276298E-7 
451 15.1735 1.001356  1.399514E-7 
452 15.2882 1.001777  1.837540E-7 
453 15.4411 1.001966  2.036970E-7 
454 15.3264 1.002379  2.469793E-7 
455 15.4411 1.002466  2.564905E-7 
456 15.2882 1.002824  2.942396E-7 
457 -5.8095 1.002825  2.949317E-7 
458 -5.8095 1.002546  2.663795E-7 
459 -5.7331 1.001859  1.948665E-7 
460 -5.7331 1.002039  2.140999E-7 
461 -5.7331 1.002322  2.443220E-7 
462 -5.7331 1.002467  2.600604E-7 
463 -5.7331 1.002213  2.337955E-7 
464 -5.6948 1.001704  1.803251E-7 
465 -5.7713 1.001961  2.080001E-7 
466 -5.7713 1.001837  1.952187E-7 
467 -5.6948 1.001902  2.025180E-7 
468 -5.6948 1.001903  2.030308E-7 
469 -5.7331 1.002040  2.180047E-7 
470 -14.3327 1.002049  2.193908E-7 
471 -5.7331 1.001519  1.629553E-7 
472 -5.8477 1.002175  2.338461E-7 
473 -5.7331 1.001913  2.060279E-7 
474 -5.7331 1.001494  1.612853E-7 
475 -14.4473 1.001975  2.135235E-7 
476 -14.3709 1.002041  2.211377E-7 
477 -14.5238 1.002559  2.778182E-7 
478 -14.5620 1.003385  3.681415E-7 
479 -14.4473 1.003746  4.082666E-7 
480 -14.5238 1.004264  4.656539E-7 
481 -14.6766 1.004827  5.281657E-7 
482 -14.6002 1.004711  5.164443E-7 
483 -14.6002 1.004410  4.844149E-7 
484 -8.1410 1.004668  5.137169E-7 
485 -8.1410 1.005244  5.782274E-7 
486 -8.0645 1.004458  4.925229E-7 
487 -7.4148 1.003739  4.139140E-7 
488 -6.8415 1.003824  4.241681E-7 
489 3.6692 1.004221  4.691265E-7 
490 -14.6002 1.003832  4.267104E-7 
491 -6.6504 1.003753  4.187523E-7 
492 -6.5357 1.003611  4.036559E-7 
493 -14.3709 1.004317  4.835088E-7 
494 -14.3709 1.004645  5.213370E-7 
495 -14.5620 1.004262  4.792483E-7 
496 -14.7531 1.003994  4.499851E-7 
497 3.2105 1.004606  5.199528E-7 
498 3.2870 1.004708  5.325582E-7 
499 3.2105 1.004000  4.533216E-7 
500 3.1341 1.003553  4.034238E-7 
501 3.2870 1.004470  5.086080E-7 
502 3.2105 1.004412  5.029441E-7 
503 3.2870 1.004484  5.122074E-7 
504 3.1723 1.004862  5.564122E-7 
505 2.9048 1.004292  4.921442E-7 
506 2.8665 1.005324  6.116464E-7 
507 2.7519 1.005011  5.768290E-7 
508 2.6754 1.004455  5.138837E-7 
509 2.6754 1.004177  4.827279E-7 
510 2.6372 1.003840  4.446116E-7 
511 2.5990 1.003977  4.614401E-7 
512 -14.6766 1.003198  3.718017E-7 
513 -14.7149 1.003472  4.043851E-7 
514 -14.6766 1.003671  4.284105E-7 
515 2.2550 1.003920  4.583525E-7 
516 0.5351 1.004828  5.657209E-7 
517 0.3440 1.005672  6.659040E-7 
518 0.2675 1.005579  6.562662E-7 
519 0.3822 1.005664  6.675807E-7 
520 0.6497 1.005615  6.630991E-7 
521 0.3440 1.005675  6.714323E-7 
522 0.0000 1.005843  6.926875E-7 
523 -14.0269 1.005640  6.698972E-7 
524 -13.9505 1.005673  6.752284E-7 
525 -13.7976 1.005402  6.441970E-7 
526 -13.8358 1.006150  7.348535E-7 
527 -13.9122 1.005704  6.828713E-7 
528 -14.0269 1.005670  6.801663E-7 
529 -14.2562 1.006579  7.906960E-7 
530 -14.2180 1.006053  7.289127E-7 
531 -14.2180 1.005535  6.678261E-7 
532 -14.1033 1.005811  7.025640E-7 
533 -13.9887 1.005554  6.727991E-7 
534 -13.8358 1.005735  6.960512E-7 
535 -13.9505 1.006255  7.607041E-7 
536 -13.8740 1.005096  6.209762E-7 
537 -13.8740 1.004961  6.056625E-7 
538 -13.8358 1.005169  6.323118E-7 
539 -13.8358 1.005124  6.280537E-7 
540 -13.9505 1.005158  6.334045E-7 
541 -13.8740 1.004582  5.637396E-7 
542 -13.6829 1.005352  6.597674E-7 
543 -13.7594 1.004740  5.854698E-7 
544 -13.8740 1.003496  4.327011E-7 
545 -14.0269 1.002687  3.332228E-7 
546 16.5494 1.002630  3.267251E-7 
547 -14.6384 1.002378  2.960289E-7 
548 15.6322 1.002848  3.552306E-7 
549 2.1021 1.002138  2.672488E-7 
550 1.9875 1.002237  2.801100E-7 
551 2.3314 1.001957  2.455901E-7 
552 2.4079 1.002007  2.523308E-7 
553 2.4079 1.001007  1.268147E-7 
554 2.6754 1.001062  1.340850E-7 
555 2.5990 1.001706  2.157393E-7 
556 2.8665 1.000938  1.188452E-7 
557 18.7662 1.001075  1.364362E-7 
558 18.6516 1.001171  1.489665E-7 
559 -14.4473 1.001136  1.447780E-7 
560 -14.2180 1.001177  1.502643E-7 
561 -14.3327 1.001153  1.474879E-7 
562 -14.2944 1.000481  6.163429E-8 
563 -14.4091 0.999831 -2.167865E-8 
564 -14.5620 0.999756 -3.144041E-8 
565 -15.0206 0.999476 -6.754840E-8 
566 -14.7913 0.999483 -6.678268E-8 
567 19.4924 0.999802 -2.564895E-8 
568 19.4160 0.999535 -6.037399E-8 
569 19.4924 1.000471  6.123015E-8 
570 19.4924 1.000129  1.679984E-8 
571 -19.4924 1.000698  9.110130E-8 
572 -19.5306 1.001245  1.626989E-7 
573 -19.5306 1.001907  2.498272E-7 
574 14.8295 1.002104  2.761276E-7 
575 15.0206 1.002669  3.509419E-7 
576 15.1735 1.001574  2.074073E-7 
577 15.2882 1.002512  3.315633E-7 
578 15.3646 1.002098  2.774581E-7 
579 -9.6698 1.001870  2.477602E-7 
580 15.4411 1.002966  3.938618E-7 
581 -9.7080 1.003245  4.317084E-7 
582 -9.8991 1.002684  3.577841E-7 
583 -14.5238 1.003266  4.361426E-7 
584 15.2882 1.003299  4.414842E-7 
585 -9.8226 1.003588  4.810825E-7 
586 -9.5933 1.003318  4.456946E-7 
587 15.1353 1.002369  3.188724E-7 
588 15.2882 1.002252  3.036555E-7 
589 15.4028 1.001229  1.661152E-7 
590 15.4793 1.001619  2.191491E-7 
591 -9.2493 1.002181  2.957999E-7 
592 -9.1729 1.002135  2.901100E-7 
593 -8.9436 1.002606  3.548612E-7 
594 15.6704 1.002974  4.057913E-7 
595 15.8997 1.002646  3.617679E-7 
596 15.4793 1.003078  4.215997E-7 
597 15.5939 1.003309  4.541021E-7 
598 -8.8671 1.003085  4.241998E-7 
599 -8.9818 1.002176  2.997650E-7 
600 15.8615 1.001837  2.535886E-7 
601 15.6704 1.001569  2.169887E-7 
602 -13.4536 1.001254  1.737663E-7 
603 -13.3389 1.000682  9.469053E-8 
604 -13.6065 1.000827  1.150932E-7 
605 -13.4918 1.000613  8.547299E-8 
606 -13.6447 1.001859  2.596025E-7 
607 -8.3703 1.000966  1.351123E-7 
608 -8.2556 1.001106  1.550312E-7 
609 -8.4467 1.001317  1.849991E-7 
610 -8.6760 1.000310  4.368252E-8 
611 -8.4849 1.000519  7.322639E-8 
612 -8.5996 1.001432  2.023099E-7 
613 -8.7907 1.001196  1.693233E-7 
614 15.1735 1.000915  1.297222E-7 
615 15.2117 1.000258  3.660875E-8 
616 15.1735 1.000798  1.136751E-7 
617 15.0971 1.001621  2.311676E-7 
618 15.0206 1.001544  2.207113E-7 
619 14.9060 1.002328  3.333359E-7 
620 14.8295 1.002181  3.129678E-7 
621 14.7913 1.001792  2.576108E-7 
622 14.6002 1.001603  2.308333E-7 
623 14.5620 1.001554  2.241788E-7 
624 14.4855 1.001377  1.990656E-7 
625 14.4473 1.001816  2.630176E-7 
626 14.5620 1.001646  2.388321E-7 
627 14.4855 1.002419  3.517384E-7 
628 14.2562 1.002866  4.175203E-7 
629 14.2180 1.003009  4.392770E-7 
630 14.2180 1.003752  5.488020E-7 
631 14.1416 1.003248  4.759895E-7 
632 14.1798 1.003704  5.437634E-7 
633 14.1798 1.003457  5.085486E-7 
634 14.1033 1.004215  6.212340E-7 
635 14.1798 1.004563  6.737640E-7 
636 14.1798 1.004526  6.696381E-7 
637 3.8985 1.003917  5.805800E-7 
638 3.8220 1.004028  5.982766E-7 
639 4.0131 1.004072  6.059080E-7 
640 14.2944 1.003966  5.913617E-7 
641 3.9367 1.003443  5.142995E-7 
642 3.9749 1.003274  4.899372E-7 
643 3.8220 1.004247  6.367855E-7 
644 3.7838 1.004401  6.611984E-7 
645 3.7456 1.004791  7.212110E-7 
646 3.5163 1.005051  7.616988E-7 
647 3.3634 1.004978  7.521562E-7 
648 3.4781 1.004924  7.453969E-7 
649 3.6309 1.005190  7.872408E-7 
650 3.7074 1.004972  7.555639E-7 
651 14.1033 1.005174  7.877294E-7 
652 12.3452 1.004866  7.422459E-7 
653 -15.2117 1.005152  7.874948E-7 
654 -15.5939 1.005257  8.050566E-7 
655 -15.0206 1.005218  8.006316E-7 
656 -14.8295 1.005283  8.120389E-7 
657 -14.6002 1.004019  6.189660E-7 
658 -14.6002 1.003867  5.967826E-7 
659 -14.4091 1.003196  4.941357E-7 
660 -14.6002 1.002609  4.041908E-7 
661 -14.6002 1.003832  5.947708E-7 
662 -14.6002 1.003208  4.988745E-7 
663 -14.6384 1.003779  5.886534E-7 
664 -14.7531 1.002955  4.611382E-7 
665 -14.4473 1.002426  3.794405E-7 
666 -14.4855 1.001677  2.628018E-7 
667 12.6127 1.001867  2.931099E-7 
668 1.7199 1.002336  3.673169E-7 
669 1.6435 1.002467  3.888018E-7 
670 1.5670 1.003022  4.771172E-7 
671 1.4906 1.004228  6.686611E-7 
672 1.4906 1.003845  6.093140E-7 
673 5.6184 1.003585  5.691731E-7 
674 5.2744 1.003623  5.762781E-7 
675 15.5939 1.003684  5.870982E-7 
676 -14.4855 1.003330  5.316593E-7 
677 -14.0651 1.002923  4.676166E-7 
678 -14.9442 1.003822  6.126297E-7 
679 -15.0971 1.004132  6.634701E-7 
680 -15.1353 1.003798  6.109972E-7 
681 -15.4793 1.003634  5.858259E-7 
682 -15.1353 1.003317  5.356987E-7 
683 -15.2500 1.003514  5.685621E-7 
684 -15.3264 1.003057  4.956319E-7 
685 -15.4411 1.003039  4.935561E-7 
686 -15.5175 1.002547  4.145064E-7 
687 -15.2882 1.002582  4.209400E-7 
688 -14.9824 1.002260  3.691185E-7 
689 -12.9949 1.002657  4.347930E-7 
690 -15.0971 1.003641  5.968733E-7 
691 -14.9060 1.003062  5.029425E-7 
692 -14.8677 1.003411  5.613116E-7 
693 -13.4536 1.003608  5.948915E-7 
694 -13.1860 1.003735  6.170335E-7 
695 -13.5300 1.003333  5.516752E-7 
696 -15.1353 1.003511  5.821696E-7 
697 -15.5557 1.003977  6.606165E-7 
698 -15.7850 1.003726  6.201098E-7 
699 -13.3389 1.003580  5.968834E-7 
700 -13.3771 1.002983  4.983326E-7 
701 -13.6447 1.002381  3.984458E-7 
702 -13.8358 1.002489  4.173262E-7 
703 -13.2243 1.001917  3.221015E-7 
704 -13.3007 1.001325  2.230579E-7 
705 1.7581 1.001336  2.253065E-7 
706 1.7581 1.001517  2.562881E-7 
707 1.6435 1.002497  4.227217E-7 
708 1.5670 1.001725  2.925939E-7 
709 1.6817 1.001055  1.791734E-7 
710 1.7964 1.001718  2.924779E-7 
711 1.7199 1.000991  1.690545E-7 
712 1.6053 1.001726  2.949011E-7 
713 1.4906 1.001743  2.983262E-7 
714 1.5288 1.001562  2.678785E-7 
715 1.4142 1.001998  3.432837E-7 
716 1.4142 1.002629  4.524978E-7 
717 1.4142 1.002839  4.895522E-7 
718 1.4142 1.003061  5.288381E-7 
719 1.5670 1.003046  5.272700E-7 
720 1.6817 1.003201  5.552052E-7 
721 1.7964 1.003501  6.082597E-7 
722 1.6435 1.002706  4.710451E-7 
723 1.6435 1.002756  4.805576E-7 
724 1.7199 1.003060  5.346425E-7 
725 1.7581 1.004042  7.075336E-7 
726 1.7581 1.004503  7.897390E-7 
727 1.6817 1.004840  8.503964E-7 
728 1.4524 1.004954  8.719490E-7 
729 1.5288 1.005320  9.381989E-7 
730 1.5670 1.005464  9.653996E-7 
731 1.2995 1.005937  1.050808E-6 
732 -5.5420 1.005570  9.877712E-7 
733 -19.1867 1.006640  1.179659E-6 
734 -19.3013 1.007724  1.374692E-6 
735 1.0320 1.008312  1.482087E-6 
736 1.2231 1.008351  1.491930E-6 
737 15.4793 1.008483  1.518217E-6 
738 1.2613 1.008068  1.446744E-6 
739 -19.4924 1.008658  1.555234E-6 
740 15.0206 1.009211  1.657667E-6 
741 19.4542 1.010382  1.871947E-6 
742 19.2631 1.010579  1.910945E-6 
743 19.4542 1.010056  1.819786E-6 
744 15.1353 1.010585  1.919140E-6 
745 15.2882 1.010164  1.846237E-6 
746 15.3264 1.010177  1.851982E-6 
747 18.1547 1.010127  1.846289E-6 
748 18.6133 1.010267  1.875251E-6 
749 17.7343 1.010877  1.990337E-6 
750 17.8872 1.009879  1.810892E-6 
751 17.6961 1.009931  1.823939E-6 
752 17.6196 1.010992  2.022401E-6 
753 17.6961 1.011155  2.056192E-6 
754 17.6578 1.010871  2.007556E-6 
755 17.5432 1.010561  1.953820E-6 
756 17.6961 1.010081  1.868373E-6 
757 17.8872 1.009952  1.847940E-6 
758 17.8872 1.010353  1.925913E-6 
759 17.6196 1.009906  1.846167E-6 
760 17.8107 1.010072  1.880491E-6 
761 17.8872 1.009739  1.821618E-6 
762 17.7725 1.010375  1.944126E-6 
763 17.7343 1.009169  1.721248E-6 
764 17.6578 1.009082  1.708199E-6 
765 18.1165 1.008644  1.628741E-6 
766 0.1529 1.008559  1.615658E-6 
767 0.1529 1.008336  1.576367E-6 
768 0.0382 1.009072  1.718814E-6 
769 0.0000 1.008154  1.547632E-6 
770 0.0000 1.007870  1.496409E-6 
771 0.4586 1.008082  1.539580E-6 
772 0.7262 1.008261  1.576433E-6 
773 0.6880 1.008419  1.609617E-6 
774 0.7644 1.008383  1.605647E-6 
775 0.4969 1.008869  1.701864E-6 
776 0.4586 1.008728  1.677749E-6 
777 0.3440 1.008583  1.652899E-6 
778 0.1529 1.008441  1.628601E-6 
779 0.2675 1.007986  1.543597E-6 
780 0.2293 1.007813  1.512803E-6 
781 0.2675 1.007852  1.523047E-6 
782 0.3058 1.007117  1.383032E-6 
783 0.3822 1.006739  1.312015E-6 
784 0.4204 1.006425  1.253083E-6 
785 0.3822 1.005668  1.107521E-6 
786 0.4204 1.005371  1.051246E-6 
787 0.5351 1.004872  9.554357E-7 
788 0.5733 1.004415  8.674185E-7 
789 0.4969 1.004546  8.946003E-7 
790 0.4586 1.004421  8.716520E-7 
791 0.3822 1.004252  8.398115E-7 
792 0.3822 1.004416  8.738616E-7 
793 0.2675 1.005624  1.114833E-6 
794 0.2293 1.005482  1.088764E-6 
795 0.2675 1.005773  1.148461E-6 
796 0.1911 1.005644  1.124876E-6 
797 0.2293 1.005009  1.000052E-6 
798 0.2293 1.004564  9.128199E-7 
799 0.1911 1.005070  1.016031E-6 
800 0.1529 1.004865  9.766911E-7 
801 0.2293 1.004357  8.761728E-7 
802 0.1147 1.003921  7.900397E-7 
803 0.1147 1.004008  8.089259E-7 
804 -0.0764 1.003737  7.555498E-7 
805 -0.1911 1.003652  7.396582E-7 
806 -0.3440 1.002756  5.592944E-7 
807 -0.6880 1.003535  7.186164E-7 
808 -0.6880 1.003543  7.214368E-7 
809 -0.7644 1.003092  6.308766E-7 
810 -0.6880 1.003849  7.867176E-7 
811 -0.7262 1.003335  6.828221E-7 
812 -14.1033 1.003311  6.790741E-7 
813 -14.2944 1.003112  6.393575E-7 
814 -14.2944 1.003182  6.549330E-7 
815 -14.1798 1.003855  7.949933E-7 
816 -13.8740 1.004194  8.663901E-7 
817 -14.0269 1.004222  8.736341E-7 
818 -14.0651 1.003894  8.071679E-7 
819 -14.1033 1.003589  7.453568E-7 
820 -13.7211 1.003316  6.898505E-7 
821 -13.8358 1.003313  6.905010E-7 
822 -13.5683 1.003260  6.805896E-7 
823 -13.6065 1.002546  5.324288E-7 
824 -13.6065 1.002869  6.011139E-7 
825 -13.5300 1.002545  5.342661E-7 
826 -13.3389 1.002594  5.454808E-7 
827 -13.3007 1.002838  5.977596E-7 
828 -13.3007 1.003045  6.425674E-7 
829 -13.4154 1.002550  5.391402E-7 
830 -13.3007 1.002001  4.237698E-7 
831 -13.3771 1.001556  3.301710E-7 
832 -13.4154 1.001759  3.738854E-7 
833 -13.3771 1.001603  3.413622E-7 
834 -13.4154 1.002257  4.813313E-7 
835 -13.4154 1.001953  4.172314E-7 
836 -13.3007 1.002753  5.892618E-7 
837 -13.4154 1.001902  4.078717E-7 
838 -13.4154 1.001363  2.927438E-7 
839 -13.5300 1.002055  4.420535E-7 
840 -13.4918 1.001624  3.501367E-7 
841 -18.7280 1.001791  3.866476E-7 
842 -18.6898 1.002412  5.216652E-7 
843 -18.6898 1.002420  5.244272E-7 
844 -18.6898 1.002533  5.498864E-7 
845 -18.8045 1.002397  5.212481E-7 
846 -18.7662 1.002538  5.527337E-7 
847 -18.4222 1.002786  6.079344E-7 
848 -18.1165 1.002879  6.292723E-7 
849 -18.0400 1.003439  7.531005E-7 
850 -17.9254 1.003971  8.710338E-7 
851 -17.8107 1.004170  9.162321E-7 
852 -17.8107 1.004177  9.194294E-7 
853 -18.0018 1.004218  9.300528E-7 
854 -18.0018 1.003873  8.554971E-7 
855 -18.1547 1.004421  9.782288E-7 
856 -18.1929 1.004054  8.985596E-7 
857 -18.3076 1.004204  9.336133E-7 
858 6.1153 1.003965  8.818994E-7 
859 6.0770 1.004332  9.652914E-7 
860 6.1535 1.004189  9.351598E-7 
861 14.9824 1.004341  9.706256E-7 
862 6.1153 1.004153  9.302425E-7 
863 6.1535 1.003671  8.238214E-7 
864 6.1153 1.003843  8.638709E-7 
865 15.1735 1.003915  8.815679E-7 
866 15.3264 1.004418  9.966129E-7 
867 15.2500 1.004654  1.051492E-6 
868 15.2117 1.004694  1.062527E-6 
869 15.3264 1.004529  1.026935E-6 
870 15.2882 1.004434  1.007038E-6 
871 15.2882 1.004426  1.007101E-6 
872 15.1353 1.004167  9.497445E-7 
873 15.0206 1.004021  9.180777E-7 
874 15.0971 1.003772  8.626571E-7 
875 15.0206 1.003805  8.717734E-7 
876 15.2500 1.003728  8.555324E-7 
877 15.3646 1.003286  7.555218E-7 
878 15.2882 1.003187  7.340628E-7 
879 15.2882 1.003109  7.171926E-7 
880 15.2882 1.002855  6.598364E-7 
881 15.3646 1.002654  6.144778E-7 
882 15.4028 1.002308  5.352660E-7 
883 15.5175 1.002128  4.943794E-7 
884 15.5557 1.001637  3.808901E-7 
885 15.4411 1.001308  3.047915E-7 
886 15.3646 1.001805  4.214393E-7 
887 -13.9122 1.001850  4.327879E-7 
888 -14.2562 1.002030  4.755779E-7 
889 -14.1033 1.001876  4.401958E-7 
890 -13.9887 1.002540  5.972294E-7 
891 -14.1033 1.002086  4.913672E-7 
892 -14.3327 1.001705  4.021881E-7 
893 -14.1416 1.002302  5.439737E-7 
894 -14.0269 1.001312  3.105826E-7 
895 -14.2180 1.001771  4.198658E-7 
896 -14.2562 1.000529  1.257545E-7 
897 -14.2562 1.000510  1.213605E-7 
898 -14.1033 1.000628  1.496253E-7 
899 -13.9505 1.000411  9.821622E-8 
900 -13.9122 1.000245  5.852436E-8 
901 -13.9122 1.000088  2.119439E-8 
902 -13.9122 0.999720 -6.719817E-8 
903 -13.9887 1.000047  1.138920E-8 
904 2.2932 1.001005  2.420762E-7 
905 1.9875 1.001122  2.706528E-7 
906 1.9492 1.001272  3.074072E-7 
907 -14.0269 1.001653  4.001329E-7 
908 -13.9887 1.001924  4.664218E-7 
909 -13.9887 1.001813  4.404091E-7 
910 -13.9505 1.002191  5.330046E-7 
911 2.1403 1.002292  5.584969E-7 
912 -14.0651 1.002574  6.283961E-7 
913 -14.0651 1.002970  7.262960E-7 
914 -14.1033 1.003439  8.423569E-7 
915 2.9430 1.002590  6.355491E-7 
916 -14.1033 1.002403  5.904455E-7 
917 2.7137 1.002208  5.436641E-7 
918 2.6754 1.002402  5.922776E-7 
919 2.4843 1.002732  6.748902E-7 
920 -13.9505 1.002611  6.460659E-7 
921 -13.9505 1.003358  8.322165E-7 
922 -13.9887 1.003720  9.235408E-7 
923 -14.0651 1.003656  9.092981E-7 
924 -14.1798 1.004115  1.024928E-6 
925 -14.1798 1.002912  7.266101E-7 
926 -14.2562 1.003622  9.052087E-7 
927 -14.2562 1.003977  9.955949E-7 
928 -14.3327 1.004317  1.082736E-6 
929 -14.2180 1.004706  1.182274E-6 
930 -14.1798 1.004973  1.251466E-6 
931 -14.3709 1.004419  1.113709E-6 
932 -14.1033 1.003826  9.659984E-7 
933 -13.9505 1.003517  8.894130E-7 
934 -14.0651 1.002267  5.743603E-7 
935 -14.1798 1.002517  6.387450E-7 
936 -14.1416 1.001967  5.000241E-7 
937 -14.3709 1.002038  5.189194E-7 
938 -14.4855 1.001853  4.725050E-7 
939 -14.6766 1.001915  4.892633E-7 
940 -14.5238 1.001298  3.321745E-7 
941 -14.5238 1.001138  2.917468E-7 
942 -14.4091 1.000951  2.442359E-7 
943 -14.4855 1.001662  4.275007E-7 
944 -14.6002 1.001277  3.288434E-7 
945 -14.5620 1.001488  3.838168E-7 
946 -14.5238 1.001475  3.813228E-7 
947 -14.3327 1.001176  3.043871E-7 
948 -14.3709 1.001201  3.114201E-7 
949 -14.4473 1.001057  2.746019E-7 
950 -14.4855 1.000995  2.589335E-7 
951 -14.6384 1.000827  2.155032E-7 
952 -14.6766 1.000322  8.405583E-8 
953 -14.7531 1.000137  3.575520E-8 
954 -14.7913 0.999674 -8.543555E-8 
955 -14.7913 1.000838  2.198434E-7 
956 -14.7149 1.001709  4.490076E-7 
957 -14.6766 1.001176  3.096426E-7 
958 -14.6384 1.001218  3.212286E-7 
959 -14.6766 1.000799  2.109009E-7 
960 -14.7913 1.000645  1.706835E-7 
961 -14.8295 1.001225  3.246842E-7 
962 -14.8677 1.002437  6.467802E-7 
963 -14.7913 1.002553  6.787200E-7 
964 -14.7531 1.003937  1.048279E-6 
965 -14.8677 1.003207  8.553577E-7 
966 -14.8677 1.003182  8.501038E-7 
967 -14.9442 1.002778  7.434536E-7 
968 -14.9060 1.002450  6.568197E-7 
969 -15.0588 1.002617  7.025435E-7 
970 -14.9442 1.002367  6.365610E-7 
971 -15.1735 1.002740  7.379512E-7 
972 -15.2882 1.002297  6.197790E-7 
973 -15.3646 1.001705  4.606932E-7 
974 -15.3646 1.001786  4.835381E-7 
975 -15.3646 1.001951  5.289493E-7 
976 2.2932 1.002265  6.151952E-7 
977 -15.7468 1.002512  6.833679E-7 
978 -15.5175 1.002169  5.910285E-7 
979 -15.6322 1.001875  5.118604E-7 
980 -15.5175 1.002334  6.379577E-7 
981 -15.6322 1.002682  7.344934E-7 
982 2.2550 1.002743  7.523962E-7 
983 2.3314 1.002336  6.416961E-7 
984 -6.6886 1.002526  6.949473E-7 
985 2.2550 1.002417  6.661880E-7 
986 2.1786 1.001158  3.197024E-7 
987 2.2550 1.001849  5.113234E-7 
988 2.2932 1.001294  3.584599E-7 
989 2.1021 1.001683  4.670144E-7 
990 2.2168 1.001493  4.149438E-7 
991 14.3327 1.001708  4.754328E-7 
992 14.4091 1.001016  2.833011E-7 
993 14.6002 1.000606  1.692035E-7 
994 14.7149 0.999897 -2.873296E-8 
995 14.5238 1.000350  9.792676E-8 
996 14.3327 1.000311  8.718100E-8 
997 14.2562 1.000462  1.298632E-7 
998 14.3327 1.001206  3.394346E-7 
999 14.2944 1.001962  5.532729E-7 
1000 14.1033 1.002479  7.001698E-7 
1001 14.1798 1.002169  6.136467E-7 
1002 14.3709 1.002739  7.759742E-7 
1003 14.2562 1.002109  5.985421E-7 
1004 14.2944 1.002544  7.230334E-7 
1005 14.2562 1.001848  5.262332E-7 
1006 14.1798 1.001559  4.445554E-7 
1007 14.2562 1.001220  3.484578E-7 
1008 14.1416 1.001287  3.683061E-7 
1009 14.3709 1.000852  2.442059E-7 
1010 14.5238 1.000647  1.855560E-7 
1011 14.7149 0.999847 -4.401143E-8 
1012 14.6766 1.000498  1.433647E-7 
1013 14.6384 1.000759  2.189076E-7 
1014 14.7531 1.001423  4.110999E-7 
1015 14.6766 1.000660  1.909110E-7 
1016 14.7149 1.001296  3.754927E-7 
1017 14.6002 1.000518  1.502243E-7 
1018 14.6384 1.000535  1.555337E-7 
1019 14.6384 1.000828  2.410232E-7 
1020 -19.0720 1.001624  4.735379E-7 
1021 -19.1102 1.001004  2.934009E-7 
1022 -19.1484 1.001301  3.807270E-7 
1023 -19.1102 1.002166  6.346814E-7 
1024 -19.0338 1.002503  7.348004E-7 
1025 -18.9191 1.002195  6.453350E-7 
1026 -18.6516 1.002543  7.487834E-7 
1027 -18.5369 1.002378  7.014896E-7 
1028 -18.4605 1.001976  5.837402E-7 
1029 -18.3076 1.001210  3.579974E-7 
1030 -17.2756 1.000764  2.264069E-7 
1031 -16.9317 1.000413  1.224722E-7 
1032 -14.1033 1.000504  1.497120E-7 
1033 -14.1416 1.001340  3.989912E-7 
1034 -14.3709 1.001180  3.518198E-7 
1035 -16.2819 1.002057  6.143433E-7 
1036 -15.9379 1.002509  7.507327E-7 
1037 14.3709 1.002869  8.598093E-7 
1038 14.5620 1.002532  7.599306E-7 
1039 -14.6002 1.002726  8.194937E-7 
1040 -14.6002 1.003117  9.385747E-7 
1041 -14.6002 1.003368  1.015778E-6 
1042 -14.6384 1.003195  9.651915E-7 
1043 -14.5620 1.004205  1.272154E-6 
1044 -14.6002 1.003445  1.043932E-6 
1045 3.2487 1.003173  9.629895E-7 
1046 3.1723 1.002994  9.099872E-7 
1047 -14.6002 1.003336  1.015481E-6 
1048 -14.5620 1.004242  1.293573E-6 
1049 3.2487 1.004026  1.229547E-6 
1050 -14.3709 1.003688  1.128090E-6 
1051 -14.5238 1.003163  9.691026E-7 
1052 13.9122 1.002822  8.660700E-7 
1053 -14.4473 1.002386  7.333991E-7 
1054 13.9122 1.001625  5.001480E-7 
1055 13.7976 1.001971  6.076035E-7 
1056 13.8740 1.002262  6.984062E-7 
1057 13.7976 1.002287  7.073051E-7 
1058 13.8740 1.001681  5.205630E-7 
1059 13.7211 1.001767  5.481238E-7 
1060 13.5300 1.002038  6.332789E-7 
1061 13.5300 1.002007  6.246543E-7 
1062 -14.0269 1.001262  3.933835E-7 
1063 13.4918 1.000414  1.291658E-7 
1064 -13.9505 1.000030  9.430972E-9 
1065 13.5683 0.999630 -1.159783E-7 
1066 13.7211 0.999127 -2.738877E-7 
1067 -13.8358 0.999025 -3.063246E-7 
1068 13.8358 0.999577 -1.331034E-7 
1069 13.8740 1.000023  7.159995E-9 
1070 -13.8358 0.998737 -3.985040E-7 
1071 -13.7976 0.999989 -3.449197E-9 
1072 13.4154 0.999813 -5.917135E-8 
1073 13.3771 0.998831 -3.706687E-7 
1074 13.4918 0.998766 -3.917698E-7 
1075 -13.7211 0.999880 -3.829438E-8 
1076 -13.7976 0.999402 -1.906651E-7 
1077 -13.8740 0.998880 -3.573787E-7 
1078 -13.8358 0.998855 -3.658714E-7 
1079 -13.7976 0.998907 -3.498531E-7 
1080 13.3771 0.998501 -4.804401E-7 
1081 13.2625 0.999571 -1.377903E-7 
1082 13.3007 0.999331 -2.149645E-7 
1083 13.3007 0.999520 -1.545098E-7 
1084 13.3771 1.000714  2.303161E-7 
1085 13.3771 1.000673  2.175237E-7 
1086 13.5683 1.000375  1.213876E-7 
1087 13.4536 1.000956  3.096358E-7 
1088 13.5300 1.001347  4.372670E-7 
1089 13.5300 1.001009  3.279466E-7 
1090 13.5300 1.001414  4.602291E-7 
1091 16.6641 1.001797  5.859981E-7 
1092 16.5112 1.002888  9.429946E-7 
1093 16.5877 1.003718  1.216123E-6 
1094 16.6641 1.003816  1.249885E-6 
1095 16.4730 1.004113  1.349288E-6 
1096 16.3583 1.004688  1.540275E-6 
1097 2.2550 1.004951  1.629250E-6 
1098 2.1786 1.004697  1.548051E-6 
1099 1.9875 1.004506  1.487442E-6 
1100 1.9875 1.005342  1.766051E-6 
1101 2.0257 1.004110  1.360887E-6 
1102 2.1021 1.004860  1.611692E-6 
1103 2.1021 1.005691  1.890070E-6 
1104 2.1403 1.005986  1.991119E-6 
1105 2.1786 1.004888  1.628536E-6 
1106 2.2932 1.005482  1.829034E-6 
1107 2.2168 1.005669  1.894500E-6 
1108 2.2550 1.005331  1.784179E-6 
1109 2.2932 1.004958  1.661658E-6 
1110 2.2932 1.004627  1.553212E-6 
1111 2.1786 1.004418  1.485216E-6 
1112 2.1786 1.004881  1.643419E-6 
1113 2.1786 1.004421  1.491044E-6 
1114 2.2550 1.003357  1.133703E-6 
1115 2.3697 1.003039  1.027889E-6 
1116 2.3314 1.002863  9.698880E-7 
1117 -14.2944 1.002798  9.491776E-7 
1118 -14.3709 1.003330  1.131546E-6 
1119 -14.4091 1.003598  1.224348E-6 
1120 -14.4091 1.003212  1.094736E-6 
1121 -14.4473 1.003272  1.116889E-6 
1122 -14.3709 1.002331  7.967851E-7 
1123 -14.4091 1.001569  5.373704E-7 
1124 -14.6384 1.001960  6.721594E-7 
1125 -14.7149 1.002326  7.986630E-7 
1126 -14.6002 1.001829  6.292466E-7 
1127 -14.6766 1.001686  5.807503E-7 
1128 -14.6766 1.001948  6.721975E-7 
1129 -14.6766 1.001703  5.885427E-7 
1130 -14.6766 1.001709  5.914712E-7 
1131 -14.6384 1.001621  5.618216E-7 
1132 -14.7531 1.001139  3.952981E-7 
1133 -14.8295 1.000345  1.197554E-7 
1134 -14.7531 1.000000 -3.195598E-12 
1135 -14.8295 1.000483  1.685696E-7 
1136 -14.7531 0.999627 -1.303205E-7 
1137 -14.4855 1.000164  5.731654E-8 
1138 -14.2944 0.998809 -4.169602E-7 
1139 -14.3327 0.998888 -3.900587E-7 
1140 -14.3709 0.999633 -1.287708E-7 
1141 -14.3327 0.999551 -1.580637E-7 
1142 -14.3327 0.999071 -3.273101E-7 
1143 -14.3327 0.999636 -1.285508E-7 
1144 -14.2180 1.000238  8.421973E-8 
1145 -14.2562 1.000228  8.080165E-8 
1146 -14.2180 1.000270  9.584713E-8 
1147 -14.1416 1.000135  4.800367E-8 
1148 -14.1033 0.999559 -1.566783E-7 
1149 -14.0269 0.999439 -1.996212E-7 
1150 -14.0651 1.000310  1.103760E-7 
1151 -13.9505 1.000186  6.634893E-8 
1152 -14.0651 1.000919  3.285280E-7 
1153 -13.9887 1.001394  4.992168E-7 
1154 -14.0269 1.001034  3.708935E-7 
1155 -14.0651 1.000731  2.625772E-7 
1156 -13.9505 1.001276  4.590564E-7 
1157 -13.8740 1.001993  7.182285E-7 
1158 -5.7713 1.001757  6.339456E-7 
1159 -5.7713 1.001375  4.968520E-7 
1160 -6.2682 1.001795  6.497060E-7 
1161 -6.2682 1.002620  9.496322E-7 
1162 -6.3064 1.002488  9.030217E-7 
1163 -6.3828 1.002556  9.291566E-7 
1164 -6.2682 1.002772  1.009315E-6 
1165 -6.1917 1.002792  1.017997E-6 
1166 -6.1535 1.003511  1.282045E-6 
1167 -6.0006 1.003570  1.305647E-6 
1168 -6.0388 1.004907  1.797245E-6 
1169 -6.1153 1.005203  1.908189E-6 
1170 -6.1917 1.005223  1.918285E-6 
1171 -6.0770 1.005019  1.846353E-6 
1172 -6.1917 1.005575  2.053871E-6 
1173 -6.1153 1.004942  1.823230E-6 
1174 -6.0770 1.004368  1.613869E-6 
1175 -6.1153 1.005567  2.059920E-6 
1176 -6.1917 1.005556  2.058838E-6 
1177 -6.0006 1.005544  2.057526E-6 
1178 -5.9624 1.006274  2.331764E-6 
1179 -6.2682 1.006219  2.314639E-6 
1180 -6.2299 1.005956  2.220289E-6 
1181 -6.3064 1.006208  2.317584E-6 
1182 -6.3064 1.006025  2.252402E-6 
1183 -6.3828 1.005543  2.075202E-6 
1184 -6.0388 1.004838  1.814039E-6 
1185 -5.7713 1.004797  1.801373E-6 
1186 -5.9242 1.004071  1.530801E-6 
1187 -5.9242 1.002791  1.051072E-6 
1188 -14.4473 1.003145  1.186149E-6 
1189 -14.3709 1.003666  1.384851E-6 
1190 -14.2562 1.003442  1.301993E-6 
1191 -14.6384 1.002223  8.421853E-7 
1192 -14.5620 1.002382  9.034690E-7 
1193 -14.4855 1.002841  1.079222E-6 
1194 -14.2944 1.003029  1.152348E-6 
1195 -14.2944 1.003045  1.160198E-6 
1196 -5.6948 1.003031  1.156483E-6 
1197 -5.6184 1.002284  8.729392E-7 
1198 -5.6566 1.001745  6.676095E-7 
1199 -5.5802 1.001469  5.628135E-7 
1200 -5.5420 1.001719  6.598005E-7 
1201 -5.5802 1.002010  7.725287E-7 
1202 -5.5420 1.002232  8.592576E-7 
1203 -5.5802 1.002322  8.949935E-7 
1204 -5.5420 1.002429  9.377517E-7 
1205 -5.4655 1.001621  6.265552E-7 
1206 -5.4655 1.001437  5.563063E-7 
1207 -5.4655 1.001310  5.079227E-7 
1208 -5.4273 1.000585  2.271924E-7 
1209 -5.5420 1.000631  2.452034E-7 
1210 -5.5802 1.000823  3.204803E-7 
1211 -5.5802 1.000419  1.635638E-7 
1212 2.5225 1.000051  1.976262E-8 
1213 2.4079 1.000509  1.989246E-7 
1214 2.4461 1.000909  3.558945E-7 
1215 2.5608 1.000687  2.694341E-7 
1216 2.6372 1.001160  4.557436E-7 
1217 2.5990 1.001756  6.908609E-7 
1218 2.5225 1.000943  3.713303E-7 
1219 2.5608 1.001044  4.117305E-7 
1220 2.5608 1.000963  3.803394E-7 
1221 2.5990 1.001810  7.161143E-7 
1222 2.6754 1.002287  9.059141E-7 
1223 17.5432 1.002101  8.337334E-7 
1224 17.5814 1.002183  8.673367E-7 
1225 17.3139 1.002229  8.870997E-7 
1226 17.1992 1.002082  8.295825E-7 
1227 16.9699 1.002461  9.820102E-7 
1228 -14.5238 1.002545  1.017200E-6 
1229 17.3903 1.002872  1.149267E-6 
1230 17.2374 1.002570  1.030147E-6 
1231 -14.7531 1.002714  1.089120E-6 
1232 -14.7913 1.002234  8.978594E-7 
1233 -14.9442 1.002955  1.189304E-6 
1234 -14.9442 1.003299  1.329491E-6 
1235 -14.8677 1.003475  1.402676E-6 
1236 -14.8295 1.003976  1.607074E-6 
1237 -14.9060 1.003840  1.554234E-6 
1238 -14.9824 1.004268  1.729912E-6 
1239 -15.0206 1.004378  1.777051E-6 
1240 -15.0206 1.004123  1.675888E-6 
1241 -15.0206 1.004350  1.770665E-6 
1242 -15.1353 1.004356  1.775988E-6 
1243 -15.0971 1.004497  1.835865E-6 
1244 -15.1735 1.005109  2.088568E-6 
1245 -15.4411 1.005244  2.146901E-6 
1246 -15.2500 1.005182  2.124708E-6 
1247 -15.2882 1.005013  2.058401E-6 
1248 -19.3778 1.005948  2.445644E-6 
1249 -19.3778 1.006194  2.550188E-6 
1250 -19.3013 1.006147  2.534609E-6 
1251 -19.4160 1.005699  2.353191E-6 
1252 -19.4924 1.004655  1.924679E-6 
1253 2.9048 1.004119  1.705510E-6 
1254 -19.3778 1.003950  1.638034E-6 
1255 -19.3778 1.003818  1.585215E-6 
1256 -19.3013 1.004276  1.778011E-6 
1257 -19.4160 1.004090  1.703184E-6 
1258 -19.4542 1.004487  1.871289E-6 
1259 2.3314 1.004551  1.900665E-6 
1260 2.1021 1.003831  1.602258E-6 
1261 0.4969 1.004259  1.783560E-6 
1262 1.0702 1.004402  1.846210E-6 
1263 1.2613 1.003809  1.599673E-6 
1264 0.6497 1.003334  1.401987E-6 
1265 0.8408 1.002656  1.118408E-6 
1266 0.5351 1.002258  9.522226E-7 
1267 15.8615 1.002400  1.013401E-6 
1268 15.9379 1.002534  1.071627E-6 
1269 15.8997 1.002639  1.117528E-6 
1270 15.7850 1.002423  1.027541E-6 
1271 15.7850 1.002868  1.218210E-6 
1272 15.8997 1.003564  1.515869E-6 
1273 15.8233 1.003325  1.416150E-6 
1274 15.6704 1.003071  1.309907E-6 
1275 15.7086 1.002954  1.261444E-6 
1276 15.5557 1.003107  1.328963E-6 
1277 15.5557 1.003780  1.618687E-6 
1278 15.5557 1.002899  1.243387E-6 
1279 15.5939 1.003005  1.290580E-6 
1280 15.6322 1.003036  1.305541E-6 
1281 15.6704 1.003044  1.310833E-6 
1282 15.4028 1.003188  1.375042E-6 
1283 15.2500 1.003391  1.464391E-6 
1284 15.2882 1.003850  1.665098E-6 
1285 15.2117 1.003570  1.545838E-6 
1286 -14.5620 1.003195  1.385340E-6 
1287 -14.7913 1.003694  1.603976E-6 
1288 -15.0588 1.003584  1.558752E-6 
1289 -14.7913 1.002824  1.229549E-6 
1290 -14.7531 1.003489  1.521374E-6 
1291 -14.6766 1.003277  1.431061E-6 
1292 -14.8677 1.003451  1.509096E-6 
1293 -14.9442 1.004033  1.766047E-6 
1294 -15.0206 1.004738  2.077700E-6 
1295 -15.0206 1.005181  2.274822E-6 
1296 -15.0588 1.006018  2.646321E-6 
1297 -14.7913 1.006048  2.663103E-6 
1298 -14.7531 1.005746  2.533649E-6 
1299 -14.6002 1.006212  2.742792E-6 
1300 -14.8677 1.006433  2.844161E-6 
1301 -14.8677 1.005981  2.648230E-6 
1302 -14.8295 1.005304  2.351660E-6 
1303 -14.7149 1.005217  2.315974E-6 
1304 -14.5620 1.005110  2.272007E-6 
1305 -14.5620 1.005834  2.597258E-6 
1306 -14.6384 1.006122  2.729398E-6 
1307 -14.5238 1.005632  2.514179E-6 
1308 -14.2944 1.006552  2.928742E-6 
1309 -14.1416 1.006363  2.848129E-6 
1310 -14.1033 1.006322  2.833915E-6 
1311 -14.0269 1.007061  3.169491E-6 
1312 -13.9887 1.007037  3.162793E-6 
1313 -13.8740 1.007096  3.193985E-6 
1314 -13.8358 1.006353  2.863603E-6 
1315 -13.7594 1.006520  2.942812E-6 
1316 -10.5871 1.006080  2.747765E-6 
1317 -13.7976 1.006246  2.826956E-6 
1318 -13.7976 1.006033  2.734057E-6 
1319 -10.5871 1.006667  3.025499E-6 
1320 -10.5488 1.006696  3.043009E-6 
1321 -10.5871 1.006355  2.891693E-6 
1322 17.0081 1.005927  2.700768E-6 
1323 -10.3960 1.005012  2.287106E-6 
1324 -18.8427 1.005282  2.413438E-6 
1325 -10.2049 1.005049  2.309841E-6 
1326 -18.9191 1.004562  2.090028E-6 
1327 -18.8809 1.004816  2.209265E-6 
1328 -10.2431 1.005110  2.347584E-6 
1329 -10.2431 1.004631  2.130536E-6 
1330 -10.2431 1.004983  2.295184E-6 
1331 -10.2431 1.004572  2.109030E-6 
1332 -10.2049 1.004271  1.972834E-6 
1333 -10.2813 1.004680  2.164556E-6 
1334 -15.4793 1.004918  2.277846E-6 
1335 -15.4028 1.004148  1.923589E-6 
1336 -15.5939 1.003911  1.816411E-6 
1337 -15.5175 1.004047  1.882201E-6 
1338 -15.3264 1.003438  1.600796E-6 
1339 -15.3264 1.003222  1.502282E-6 
1340 -15.2500 1.003071  1.434114E-6 
1341 -15.1735 1.002989  1.397315E-6 
1342 -15.1735 1.003347  1.567093E-6 
1343 -15.1735 1.003002  1.407340E-6 
1344 -15.3264 1.004039  1.896228E-6 
1345 -15.2882 1.003963  1.862739E-6 
1346 -15.1353 1.004554  2.143758E-6 
1347 -15.3264 1.004677  2.204611E-6 
1348 -15.1353 1.004811  2.270588E-6 
1349 -15.1735 1.004419  2.088425E-6 
1350 -15.2500 1.004115  1.947484E-6 
1351 -15.2117 1.003842  1.820504E-6 
1352 -15.1735 1.003637  1.725949E-6 
1353 -15.2500 1.004208  1.999252E-6 
1354 -15.4028 1.003328  1.583318E-6 
1355 -15.3646 1.003406  1.622716E-6 
1356 -15.2882 1.003288  1.568646E-6 
1357 -15.2882 1.002510  1.199177E-6 
1358 -15.2882 1.001903  9.104903E-7 
1359 -15.2500 1.001911  9.152547E-7 
1360 -15.1735 1.000821  3.937855E-7 
1361 -15.1735 1.001120  5.381235E-7 
1362 -15.0588 1.001316  6.328514E-7 
1363 -15.0971 1.001050  5.056116E-7 
1364 -15.0206 1.000950  4.582809E-7 
1365 -14.7913 1.000827  3.995061E-7 
1366 -14.6002 1.000196  9.476831E-8 
1367 -14.5620 1.000844  4.085074E-7 
1368 -14.6766 1.001469  7.121148E-7 
1369 -14.6384 1.002249  1.091725E-6 
1370 -14.5238 1.004229  2.055536E-6 
1371 0.9937 1.007904  3.847085E-6 
1372 0.2675 1.015572  7.588997E-6 
1373 -0.1529 1.028776  1.404268E-5 
1374 -0.3822 1.046232  2.259158E-5 
1375 -0.4586 1.071171  3.482425E-5 
1376 -0.4586 1.102963  5.044698E-5 
1377 -0.4586 1.139553  6.846501E-5 
1378 -0.4204 1.181793  8.930633E-5 
1379 -0.4204 1.230166  1.132192E-4 
1380 -0.3822 1.282360  1.390775E-4 
1381 -0.3822 1.337312  1.663642E-4 
1382 -0.3440 1.396495  1.958118E-4 
1383 -0.3440 1.456404  2.256962E-4 
1384 -0.3440 1.516434  2.557192E-4 
1385 -0.3440 1.574458  2.848259E-4 
1386 -0.3440 1.629303  3.124307E-4 
1387 -0.3440 1.679165  3.376304E-4 
1388 -0.3440 1.724165  3.604757E-4 
1389 -0.3440 1.762615  3.801156E-4 
1390 -0.3440 1.794118  3.963388E-4 
1391 -0.3440 1.820274  4.099321E-4 
1392 -0.3440 1.840174  4.204292E-4 
1393 -0.3440 1.856322  4.290735E-4 
1394 -0.3058 1.868671  4.358329E-4 
1395 -0.3058 1.878621  4.414045E-4 
1396 -0.3440 1.885833  4.456116E-4 
1397 -0.3440 1.889152  4.478682E-4 
1398 -0.3058 1.891586  4.496835E-4 
1399 -0.3058 1.892620  4.507948E-4 
1400 -0.3058 1.891471  4.508044E-4 
1401 -0.3058 1.887998  4.496365E-4 
1402 -0.3058 1.880565  4.464562E-4 
1403 -0.3058 1.868937  4.411370E-4 
1404 -0.3058 1.851284  4.327401E-4 
1405 -0.3058 1.827246  4.210705E-4 
1406 -0.3058 1.795035  4.052035E-4 
1407 -0.3058 1.757827  3.867440E-4 
1408 -0.3058 1.715825  3.657857E-4 
1409 -0.3058 1.667146  3.413553E-4 
1410 -0.3440 1.615813  3.155008E-4 
1411 -0.3440 1.561141  2.878651E-4 
1412 -0.3440 1.502550  2.581436E-4 
1413 -0.3440 1.442453  2.275700E-4 
1414 -0.3440 1.382174  1.968219E-4 
1415 -0.3440 1.324576  1.673758E-4 
1416 -0.3440 1.269818  1.393193E-4 
1417 -0.3440 1.220309  1.139035E-4 
1418 -0.3440 1.175572  9.089125E-5 
1419 -0.3440 1.136898  7.096224E-5 
1420 -0.3822 1.105852  5.494036E-5 
1421 -0.3822 1.079712  4.142692E-5 
1422 -0.4204 1.059639  3.103491E-5 
1423 -0.3822 1.043933  2.289142E-5 
1424 -0.3822 1.031602  1.648777E-5 
1425 -1.2613 1.022177  1.158507E-5 
1426 -2.1786 1.014693  7.685641E-6 
1427 -4.9687 1.010377  5.434953E-6 
1428 -19.3013 1.007774  4.076831E-6 
1429 -19.1867 1.006070  3.187233E-6 
1430 -5.3126 1.004861  2.555725E-6 
1431 -15.1735 1.004316  2.272164E-6 
1432 -14.9824 1.004315  2.274701E-6 
1433 -14.9442 1.003487  1.840350E-6 
1434 -14.9442 1.002533  1.338641E-6 
1435 14.6766 1.002185  1.156379E-6 
1436 -18.9956 1.002302  1.219938E-6 
1437 14.9060 1.002217  1.176027E-6 
1438 14.8295 1.001887  1.002623E-6 
1439 -19.4924 1.002260  1.201967E-6 
1440 14.7149 1.001896  1.009611E-6 
1441 14.7913 1.001425  7.597618E-7 
1442 14.9442 1.001217  6.496638E-7 
1443 14.8677 1.001131  6.044208E-7 
1444 -14.9442 1.001315  7.038969E-7 
1445 14.7149 1.000884  4.736475E-7 
1446 14.9060 1.000846  4.542801E-7 
1447 14.9060 1.000995  5.347189E-7 
1448 -15.0588 1.000968  5.210843E-7 
1449 -15.0971 1.001058  5.697782E-7 
1450 -14.9442 1.001109  5.980904E-7 
1451 -15.0206 1.001212  6.544264E-7 
1452 14.9060 1.002057  1.112446E-6 
1453 15.1353 1.000973  5.268192E-7 
1454 14.9824 1.001248  6.764979E-7 
1455 14.7913 1.000819  4.446746E-7 
1456 14.9824 1.001736  9.434647E-7 
1457 -14.8677 1.001991  1.083660E-6 
1458 -14.5238 1.001732  9.436399E-7 
1459 -14.9824 1.002283  1.245948E-6 
1460 -14.6766 1.002913  1.591538E-6 
1461 -14.6002 1.002549  1.394192E-6 
1462 -14.5238 1.002808  1.537828E-6 
1463 -14.4855 1.003025  1.658854E-6 
1464 -14.6384 1.002589  1.421776E-6 
1465 -14.4855 1.002314  1.272104E-6 
1466 -14.6766 1.003283  1.807269E-6 
1467 -14.5620 1.003576  1.971290E-6 
1468 -14.7531 1.004064  2.243116E-6 
1469 -14.8677 1.004155  2.296249E-6 
1470 -14.8677 1.004246  2.349561E-6 
1471 -19.5689 1.004770  2.642527E-6 
1472 -19.4160 1.003936  2.183609E-6 
1473 -19.4924 1.004418  2.454050E-6 
1474 -19.4542 1.004939  2.746501E-6 
1475 -19.4160 1.005214  2.903205E-6 
1476 -19.3395 1.004938  2.753238E-6 
1477 -19.4542 1.005302  2.960054E-6 
1478 19.4542 1.005711  3.191899E-6 
1479 19.4160 1.005247  2.936716E-6 
1480 19.3013 1.005340  2.992385E-6 
1481 19.4542 1.005646  3.167624E-6 
1482 -19.5689 1.005096  2.862671E-6 
1483 19.5306 1.005848  3.289594E-6 
1484 19.5306 1.005134  2.891591E-6 
1485 19.4160 1.005386  3.037271E-6 
1486 -19.4924 1.005809  3.279568E-6 
1487 19.4924 1.005871  3.318755E-6 
1488 19.4924 1.005429  3.072947E-6 
1489 19.4542 1.005103  2.892151E-6 
1490 -14.7913 1.004374  2.481917E-6 
1491 -14.7531 1.004514  2.564529E-6 
1492 -14.6002 1.004149  2.360423E-6 
1493 -14.7149 1.004524  2.576478E-6 
1494 -14.6766 1.004619  2.634018E-6 
1495 -14.5238 1.004146  2.367196E-6 
1496 -14.4473 1.003446  1.970185E-6 
1497 -14.3327 1.003698  2.116991E-6 
1498 -14.4473 1.003380  1.937204E-6 
1499 -14.4091 1.003556  2.040422E-6 
1500 -14.4473 1.003127  1.796786E-6 
1501 -14.4091 1.003140  1.806223E-6 
1502 -14.4855 1.003993  2.299658E-6 
1503 -14.4855 1.003568  2.057492E-6 
1504 -14.4855 1.003454  1.994294E-6 
1505 -14.5620 1.003184  1.840761E-6 
1506 -14.5238 1.003267  1.891220E-6 
1507 -14.5238 1.002756  1.597517E-6 
1508 -14.3709 1.002614  1.516688E-6 
1509 -14.4091 1.002229  1.295227E-6 
1510 -14.4091 1.002189  1.273207E-6 
1511 -14.3327 1.002231  1.299314E-6 
1512 -14.2562 1.002659  1.550828E-6 
1513 -14.2562 1.002473  1.443938E-6 
1514 -14.1798 1.002853  1.667971E-6 
1515 -14.1416 1.002670  1.562830E-6 
1516 -14.0651 1.001649  9.665957E-7 
1517 -14.1033 1.001629  9.558958E-7 
1518 -14.1033 1.002132  1.252854E-6 
1519 14.3709 1.002112  1.242635E-6 
1520 -14.2562 1.003055  1.799181E-6 
1521 13.8358 1.003360  1.981187E-6 
1522 13.8358 1.003209  1.894519E-6 
1523 13.9122 1.002663  1.574394E-6 
1524 13.7594 1.003056  1.809073E-6 
1525 13.8740 1.003881  2.300000E-6 
1526 13.9122 1.003903  2.315817E-6 
1527 13.9122 1.003410  2.025905E-6 
1528 13.9505 1.003495  2.078593E-6 
1529 13.9505 1.003711  2.210110E-6 
1530 13.9505 1.003631  2.165272E-6 
1531 13.9887 1.003440  2.053813E-6 
1532 14.1033 1.003256  1.946380E-6 
1533 14.1798 1.002879  1.723012E-6 
1534 14.1798 1.002747  1.646036E-6 
1535 14.2944 1.002509  1.505537E-6 
1536 14.4091 1.002977  1.788329E-6 
1537 14.3709 1.003260  1.960693E-6 
1538 14.3709 1.002747  1.654314E-6 
1539 14.4091 1.003665  2.209516E-6 
1540 2.2168 1.003069  1.852607E-6 
1541 14.4473 1.003160  1.910043E-6 
1542 14.4473 1.003053  1.847518E-6 
1543 19.4160 1.002796  1.693623E-6 
1544 19.4924 1.002668  1.618061E-6 
1545 19.4160 1.002611  1.585415E-6 
1546 19.3013 1.002287  1.390336E-6 
1547 19.2631 1.001725  1.050369E-6 
1548 19.2249 1.002094  1.276242E-6 
1549 18.9956 1.001899  1.158907E-6 
1550 -14.9060 1.001133  6.924827E-7 
1551 -14.9824 1.001192  7.291820E-7 
1552 -15.1353 1.001078  6.605906E-7 
1553 -15.0971 1.001336  8.191774E-7 
1554 -15.1353 1.001644  1.009195E-6 
1555 -15.2882 1.001339  8.231199E-7 
1556 -15.2500 1.001130  6.951990E-7 
1557 -15.4028 1.001314  8.100027E-7 
1558 -15.1735 1.001144  7.059936E-7 
1559 -15.0971 1.000218  1.349211E-7 
1560 -14.9060 1.000471  2.910530E-7 
1561 -14.7531 1.000285  1.764860E-7 
1562 -14.8677 1.000138  8.574473E-8 
1563 -14.9442 1.000468  2.905615E-7 
1564 -14.9060 1.000885  5.501956E-7 
1565 -14.9824 1.000918  5.711657E-7 
1566 -14.9442 1.000497  3.096121E-7 
1567 -14.8295 1.000351  2.189288E-7 
1568 -14.8295 1.000216  1.348376E-7 
1569 18.3458 1.000343  2.145956E-7 
1570 19.0720 1.000619  3.876621E-7 
1571 18.9191 1.000865  5.419849E-7 
1572 19.3013 1.000837  5.249359E-7 
1573 19.3013 1.000564  3.542883E-7 
1574 19.1484 1.000865  5.441217E-7 
1575 19.3013 1.001542  9.713365E-7 
1576 -7.3765 1.002407  1.517761E-6 
1577 -7.3765 1.003036  1.916539E-6 
1578 -7.4912 1.002232  1.410996E-6 
1579 -14.7149 1.002462  1.557639E-6 
1580 -14.8677 1.002428  1.538510E-6 
1581 -14.9060 1.001834  1.163028E-6 
1582 -14.9060 1.001981  1.258124E-6 
1583 -15.1353 1.001292  8.213663E-7 
1584 -14.8677 1.001216  7.741100E-7 
1585 -15.0588 1.001451  9.250607E-7 
1586 -15.1353 1.001870  1.193275E-6 
1587 -14.9060 1.001601  1.022867E-6 
1588 -14.8677 1.001842  1.178283E-6 
1589 -7.0708 1.001108  7.098023E-7 
1590 -14.9060 1.001386  8.887356E-7 
1591 -6.9561 1.001470  9.436813E-7 
1592 -14.5620 1.001909  1.226803E-6 
1593 -14.5620 1.001659  1.067846E-6 
1594 -14.6002 1.000512  3.295734E-7 
1595 -14.4855 1.000869  5.607271E-7 
1596 3.1341 1.001171  7.564795E-7 
1597 3.2487 1.001562  1.010095E-6 
1598 3.4016 1.002325  1.504773E-6 
1599 3.5545 1.001697  1.099890E-6 
1600 3.7074 1.001204  7.811232E-7 
1601 -14.4473 1.000808  5.249318E-7 
1602 -14.2944 1.000849  5.521765E-7 
1603 3.2105 1.000648  4.218451E-7 
1604 3.2870 1.000018  1.147731E-8 
1605 2.6372 0.999536 -3.027027E-7 
1606 2.8665 0.999293 -4.623336E-7 
1607 3.0194 0.998537 -9.571764E-7 
1608 17.4285 0.998806 -7.821973E-7 
1609 2.7137 0.998360 -1.075617E-6 
1610 2.6754 0.998347 -1.085459E-6 
1611 2.2168 0.998474 -1.003289E-6 
1612 2.4079 0.997923 -1.366774E-6 
1613 2.3314 0.998068 -1.272825E-6 
1614 2.2550 0.998066 -1.275958E-6 
1615 16.4730 0.997779 -1.466886E-6 
1616 16.4348 0.997490 -1.659984E-6 
1617 2.1403 0.997977 -1.339351E-6 
1618 16.1290 0.998374 -1.077512E-6 
1619 16.3201 0.999702 -1.979403E-7 
1620 16.1290 0.999115 -5.880032E-7 
1621 16.0144 0.999245 -5.019546E-7 
1622 15.8615 0.998539 -9.727528E-7 
1623 16.0144 0.999485 -3.434772E-7 
1624 16.3966 1.000330  2.203717E-7 
1625 16.1672 1.000050  3.357258E-8 
1626 15.7850 0.999537 -3.096584E-7 
1627 15.3264 0.999027 -6.515900E-7 
1628 15.3264 0.998422 -1.058143E-6 
1629 15.4411 0.998852 -7.709060E-7 
1630 15.4028 0.998672 -8.928489E-7 
1631 15.4028 0.998403 -1.075040E-6 
1632 15.3646 0.998401 -1.077442E-6 
1633 15.3264 0.998520 -9.980432E-7 
1634 15.3264 0.998470 -1.033650E-6 
1635 15.1353 0.998516 -1.003439E-6 
1636 15.0971 0.998443 -1.053706E-6 
1637 19.1102 0.998633 -9.267887E-7 
1638 18.9956 0.998737 -8.572919E-7 
1639 18.5751 0.999046 -6.480811E-7 
1640 18.6898 0.999131 -5.909147E-7 
1641 18.8427 0.999382 -4.208161E-7 
1642 18.7280 1.000395  2.695569E-7 
1643 18.8809 1.000816  5.571925E-7 
1644 18.8427 1.000789  5.387783E-7 
1645 18.8809 1.000351  2.400168E-7 
1646 19.2631 1.000008  5.242855E-9 
1647 19.4924 0.999503 -3.407820E-7 
1648 -19.5689 0.999457 -3.730780E-7 
1649 -19.5689 0.999224 -5.332258E-7 
1650 -19.4542 0.999312 -4.737010E-7 
1651 -19.3013 0.999075 -6.371408E-7 
1652 -19.3778 0.999483 -3.566599E-7 
1653 -19.4160 0.998662 -9.235748E-7 
1654 -19.4160 0.998336 -1.150041E-6 
1655 -19.4542 0.999149 -5.886381E-7 
1656 -19.3778 0.999656 -2.380597E-7 
1657 -19.3395 0.999872 -8.854567E-8 
1658 -19.1484 1.000284  1.969418E-7 
1659 -5.8859 0.999968 -2.226514E-8 
1660 -6.0388 0.999943 -3.937278E-8 
1661 -5.8859 1.000020  1.425920E-8 
1662 -5.9242 0.999723 -1.934097E-7 
1663 15.2117 1.000628  4.386138E-7 
1664 15.2500 1.001002  7.007013E-7 
1665 15.1735 1.000715  5.006463E-7 
1666 15.2500 1.001063  7.451456E-7 
1667 15.4028 1.001722  1.208543E-6 
1668 15.2882 1.002538  1.782764E-6 
1669 15.2117 1.002269  1.595623E-6 
1670 15.2882 1.002326  1.637553E-6 
1671 15.3646 1.002546  1.794853E-6 
1672 15.5557 1.002159  1.524059E-6 
1673 15.5557 1.002032  1.435841E-6 
1674 15.4028 1.002390  1.690838E-6 
1675 15.6704 1.002925  2.071824E-6 
1676 15.1353 1.003245  2.300568E-6 
1677 15.0971 1.003296  2.339387E-6 
1678 15.1353 1.002689  1.910889E-6 
1679 15.1353 1.003117  2.217690E-6 
1680 15.3264 1.003428  2.441455E-6 
1681 15.1735 1.003045  2.171224E-6 
1682 15.2882 1.003262  2.328423E-6 
1683 -15.9379 1.003554  2.540102E-6 
1684 14.9442 1.003599  2.574968E-6 
1685 15.0588 1.001944  1.392519E-6 
1686 15.0588 1.002598  1.863524E-6 
1687 15.0971 1.002657  1.907847E-6 
1688 -15.7086 1.002232  1.604173E-6 
1689 -15.7468 1.002881  2.073037E-6 
1690 -15.7468 1.003494  2.517118E-6 
1691 -15.5557 1.003990  2.877577E-6 
1692 -15.6704 1.003439  2.483394E-6 
1693 -15.5175 1.003091  2.234495E-6 
1694 -15.3646 1.003116  2.255095E-6 
1695 -15.2882 1.003441  2.493440E-6 
1696 -15.4411 1.002694  1.954347E-6 
1697 -15.1353 1.002674  1.941781E-6 
1698 -14.7913 1.001678  1.219770E-6 
1699 -14.6002 1.002369  1.724033E-6 
1700 -14.7531 1.002086  1.519722E-6 
1701 -14.4855 1.001730  1.262339E-6 
1702 -14.3709 1.001366  9.978267E-7 
1703 -14.3709 1.001323  9.669804E-7 
1704 -14.3709 1.000773  5.658434E-7 
1705 -14.4091 1.001245  9.121708E-7 
1706 -14.4091 1.001114  8.174872E-7 
1707 -14.4855 1.000388  2.852684E-7 
1708 -14.4855 1.000824  6.055665E-7 
1709 -14.4473 1.000057  4.174110E-8 
1710 -14.4091 1.000230  1.697952E-7 
1711 -14.4091 1.000053  3.899929E-8 
1712 -14.4091 1.000140  1.032357E-7 
1713 -14.3709 1.000243  1.798404E-7 
1714 -14.3709 1.000753  5.574254E-7 
1715 -14.4091 1.001775  1.315691E-6 
1716 -14.2562 1.000462  3.430072E-7 
1717 -14.1416 0.999986 -1.067580E-8 
1718 -14.1798 1.000597  4.436809E-7 
1719 -14.1033 0.999640 -2.681443E-7 
1720 -14.1416 0.999355 -4.809550E-7 
1721 -14.1416 0.998751 -9.321828E-7 
1722 -14.0269 0.999586 -3.091180E-7 
1723 -13.9505 0.999486 -3.845806E-7 
1724 -14.1033 1.000060  4.514710E-8 
1725 -14.3327 1.000857  6.426267E-7 
1726 -14.4473 1.001123  8.422874E-7 
1727 -14.1798 1.000971  7.291077E-7 
1728 -14.2180 1.001402  1.054533E-6 
1729 -14.1798 1.000811  6.106304E-7 
1730 -14.0651 1.001490  1.122951E-6 
1731 -13.8740 1.001861  1.404202E-6 
1732 -13.7594 1.002413  1.822443E-6 
1733 -13.7976 1.002377  1.797553E-6 
1734 -13.8358 1.002727  2.064492E-6 
1735 -13.7594 1.002509  1.901370E-6 
1736 -13.6829 1.002868  2.175966E-6 
1737 -13.7976 1.003267  2.481839E-6 
1738 -13.6829 1.003124  2.375871E-6 
1739 19.3778 1.003431  2.612070E-6 
1740 -19.5689 1.003380  2.575934E-6 
1741 -13.9505 1.003839  2.929228E-6 
1742 -19.3395 1.003433  2.622168E-6 
1743 -19.4542 1.002872  2.196524E-6 
1744 4.2425 1.002646  2.025767E-6 
1745 4.0896 1.002393  1.834356E-6 
1746 3.8985 1.003212  2.464857E-6 
1747 4.0131 1.002700  2.074148E-6 
1748 4.2425 1.002248  1.728827E-6 
1749 4.3571 1.002920  2.247670E-6 
1750 4.4718 1.003012  2.320969E-6 
1751 4.2425 1.002937  2.266119E-6 
1752 4.2807 1.002456  1.897146E-6 
1753 -14.4855 1.002111  1.632560E-6 
1754 -14.5238 1.001322  1.023698E-6 
1755 -14.5620 1.000226  1.748699E-7 
1756 -14.6766 1.000521  4.044632E-7 
1757 -14.6384 1.000185  1.438729E-7 
1758 -14.6766 1.000620  4.821739E-7 
1759 -14.6384 1.001173  9.126869E-7 
1760 -14.6384 1.000915  7.133759E-7 
1761 -14.6002 1.000298  2.326140E-7 
1762 -14.6766 0.999908 -7.168571E-8 
1763 -14.8295 1.000032  2.484627E-8 
1764 -14.7149 0.999265 -5.753847E-7 
1765 -14.6002 0.999488 -4.009594E-7 
1766 -14.6384 0.999248 -5.896594E-7 
1767 -14.5620 0.999230 -6.047630E-7 
1768 -14.4473 0.998856 -8.996524E-7 
1769 -14.2944 0.998438 -1.229667E-6 
1770 -14.4091 0.997873 -1.675886E-6 
1771 -14.4091 0.997186 -2.219486E-6 
1772 -14.1798 0.997872 -1.679977E-6 
1773 -14.1798 0.998574 -1.127213E-6 
1774 -14.0651 0.997788 -1.750589E-6 
1775 -13.9887 0.997967 -1.610580E-6 
1776 -14.0269 0.997683 -1.837729E-6 
1777 -13.9887 0.998471 -1.213603E-6 
1778 -14.2944 0.998182 -1.444913E-6 
1779 -14.1798 0.997937 -1.641866E-6 
1780 -14.0651 0.998105 -1.509475E-6 
1781 -14.1416 0.998057 -1.549635E-6 
1782 -14.0651 0.998410 -1.269703E-6 
1783 -14.1798 0.998760 -9.910801E-7 
1784 -14.0651 0.999423 -4.614974E-7 
1785 -14.0269 0.999960 -3.206972E-8 
1786 -10.2813 1.000411  3.294038E-7 
1787 2.7901 1.000709  5.690355E-7 
1788 2.5990 0.999688 -2.506816E-7 
1789 -13.9122 0.999217 -6.299435E-7 
1790 -13.8740 0.998995 -8.096120E-7 
1791 2.5608 0.999365 -5.116106E-7 
1792 2.5608 0.999781 -1.769266E-7 
1793 2.3697 0.999948 -4.239264E-8 
1794 2.3314 1.000631  5.103445E-7 
1795 2.3314 1.000835  6.761237E-7 
1796 2.4079 1.000950  7.701565E-7 
1797 2.4079 1.001250  1.014387E-6 
1798 2.5608 1.002026  1.645544E-6 
1799 2.5608 1.002743  2.230616E-6 
1800 2.6372 1.002690  2.189935E-6 
1801 2.6372 1.002769  2.257157E-6 
1802 -5.8859 1.002487  2.029221E-6 
1803 2.5990 1.002255  1.841933E-6 
1804 2.5225 1.003020  2.469100E-6 
1805 2.4843 1.002983  2.442083E-6 
1806 -13.9505 1.002930  2.401282E-6 
1807 2.3314 1.002626  2.154267E-6 
1808 2.4843 1.002610  2.143264E-6 
1809 2.4843 1.002466  2.027648E-6 
1810 2.2168 1.002188  1.801100E-6 
1811 2.2168 1.002447  2.015819E-6 
1812 2.2168 1.002256  1.861069E-6 
1813 2.3697 1.001972  1.628292E-6 
1814 2.5990 1.001812  1.497948E-6 
1815 18.2694 1.001697  1.403985E-6 
1816 18.3840 1.001092  9.044660E-7 
1817 18.3076 1.001947  1.614418E-6 
1818 2.5990 1.002276  1.889702E-6 
1819 2.4843 1.002281  1.895609E-6 
1820 5.3126 1.002364  1.966422E-6 
1821 -5.8095 1.002496  2.078776E-6 
1822 -5.8095 1.001593  1.328472E-6 
1823 6.5739 1.000895  7.473433E-7 
1824 18.4987 1.000936  7.821836E-7 
1825 18.2311 0.999646 -2.960188E-7 
1826 18.1547 0.999016 -8.240897E-7 
1827 7.1472 1.000039  3.288336E-8 
1828 6.9943 0.999843 -1.317587E-7 
1829 7.0708 0.999100 -7.562168E-7 
1830 6.8415 0.998996 -8.445222E-7 
1831 4.7776 0.999118 -7.425629E-7 
1832 7.1854 0.998871 -9.509815E-7 
1833 5.0069 0.998442 -1.314224E-6 
1834 10.0138 0.998465 -1.295990E-6 
1835 -9.2876 0.998156 -1.558780E-6 
1836 14.3709 0.997856 -1.814633E-6 
1837 15.8615 0.997884 -1.793021E-6 
1838 13.9505 0.998838 -9.856635E-7 
1839 14.2562 0.999112 -7.535422E-7 
1840 14.2944 0.999649 -2.979359E-7 
1841 -15.3264 0.999706 -2.500093E-7 
1842 14.5620 1.000150  1.273952E-7 
1843 14.5620 1.000955  8.146772E-7 
1844 14.3327 1.000055  4.677087E-8 
1845 14.2562 1.000045  3.861945E-8 
1846 14.4091 1.000103  8.821926E-8 
1847 14.4855 0.999640 -3.079275E-7 
1848 14.4091 0.999974 -2.212645E-8 
1849 14.1033 1.000790  6.782853E-7 
1850 14.1033 1.000487  4.187466E-7 
1851 14.0651 1.000558  4.794445E-7 
1852 14.0651 1.001140  9.815051E-7 
1853 14.1033 1.002007  1.729403E-6 
1854 14.1798 1.001502  1.295558E-6 
1855 14.1798 1.001972  1.703087E-6 
1856 14.1416 1.002646  2.287645E-6 
1857 14.1033 1.001453  1.257002E-6 
1858 13.9505 1.001457  1.262618E-6 
1859 13.9887 1.002007  1.740410E-6 
1860 14.1033 1.002359  2.048220E-6 
1861 14.1033 1.002702  2.348078E-6 
1862 13.9887 1.003102  2.698404E-6 
1863 13.9887 1.003655  3.183334E-6 
1864 14.0269 1.003664  3.193989E-6 
1865 -13.9887 1.004046  3.531065E-6 
1866 -13.9122 1.003907  3.413685E-6 
1867 -13.9887 1.004527  3.958863E-6 
1868 -10.1666 1.004758  4.165764E-6 
1869 18.9191 1.004387  3.844525E-6 
1870 2.5990 1.004249  3.728128E-6 
1871 2.5225 1.004852  4.261713E-6 
1872 18.6133 1.004161  3.658631E-6 
1873 18.7280 1.004025  3.542626E-6 
1874 18.5751 1.004943  4.354760E-6 
1875 18.4605 1.004828  4.258397E-6 
1876 18.4222 1.004811  4.247945E-6 
1877 2.4079 1.004421  3.907094E-6 
1878 2.4079 1.004395  3.888514E-6 
1879 2.5225 1.003820  3.383438E-6 
1880 -13.7211 1.003927  3.482017E-6 
1881 -13.7211 1.004150  3.683340E-6 
1882 -13.7211 1.004105  3.647538E-6 
1883 2.1786 1.003990  3.548775E-6 
1884 2.1021 1.005022  4.470872E-6 
1885 1.9492 1.005044  4.495289E-6 
1886 1.9110 1.004846  4.323433E-6 
1887 2.0257 1.005618  5.017750E-6 
1888 1.8346 1.005238  4.682809E-6 
1889 1.7964 1.005482  4.906708E-6 
1890 15.8233 1.005204  4.662582E-6 
1891 15.8615 1.005330  4.780394E-6 
1892 15.8615 1.004892  4.392105E-6 
1893 15.8615 1.004142  3.722360E-6 
1894 15.7086 1.003690  3.319942E-6 
1895 15.5939 1.003042  2.740034E-6 
1896 -6.1535 1.003116  2.809675E-6 
1897 -6.1535 1.003358  3.030736E-6 
1898 -6.2299 1.002747  2.482038E-6 
1899 -6.0388 1.003072  2.778541E-6 
1900 -6.0388 1.003270  2.960031E-6 
1901 -6.1917 1.002404  2.178304E-6 
1902 -6.1917 1.002206  2.001544E-6 
1903 -6.1917 1.001461  1.326938E-6 
1904 -6.1917 1.001183  1.075457E-6 
1905 -6.2299 1.001146  1.043297E-6 
1906 -6.1917 1.001472  1.340889E-6 
1907 -6.2299 1.001741  1.588017E-6 
1908 -6.3064 1.001832  1.672023E-6 
1909 -6.6121 1.002381  2.175794E-6 
1910 -6.5739 1.002342  2.141934E-6 
1911 -6.6121 1.002133  1.953344E-6 
1912 14.4473 1.001602  1.468355E-6 
1913 14.2944 1.000991  9.093574E-7 
1914 14.2944 1.000390  3.578395E-7 
1915 14.1416 1.000427  3.925768E-7 
1916 14.1416 1.000587  5.406051E-7 
1917 14.1416 1.000611  5.630605E-7 
1918 14.1416 1.000581  5.360395E-7 
1919 -6.2682 1.000985  9.095086E-7 
1920 14.4473 1.000727  6.719822E-7 
1921 14.6002 1.001488  1.376248E-6 
1922 14.7531 1.002202  2.039270E-6 
1923 -13.4154 1.002256  2.091175E-6 
1924 -13.4536 1.002946  2.733752E-6 
1925 -13.1096 1.003629  3.371701E-6 
1926 -13.1478 1.003875  3.603911E-6 
1927 -13.1860 1.003352  3.120823E-6 
1928 -12.9949 1.003295  3.070467E-6 
1929 -5.6566 1.002820  2.631022E-6 
1930 14.8295 1.002094  1.955059E-6 
1931 14.9442 1.002081  1.944921E-6 
1932 14.9442 1.002626  2.456902E-6 
1933 14.7913 1.002654  2.485935E-6 
1934 14.7531 1.002885  2.705566E-6 
1935 14.9442 1.003063  2.874715E-6 
1936 15.0206 1.002951  2.772969E-6 
1937 15.1353 1.002564  2.411666E-6 
1938 -13.5300 1.002517  2.370053E-6 
1939 15.2117 1.001165  1.098247E-6 
1940 15.3646 1.001025  9.674269E-7 
1941 15.1735 1.000705  6.655782E-7 
1942 15.0206 1.001166  1.102013E-6 
1943 14.9060 1.000634  6.003079E-7 
1944 14.8295 1.000323  3.060629E-7 
1945 14.7149 1.000458  4.347218E-7 
1946 14.7531 1.000403  3.823952E-7 
1947 14.6384 0.999286 -6.785271E-7 
1948 14.4855 0.999351 -6.174959E-7 
1949 14.6384 0.998717 -1.221952E-6 
1950 14.7531 0.999427 -5.458334E-7 
1951 14.7913 0.998448 -1.480724E-6 
1952 14.7531 0.997122 -2.748916E-6 
1953 14.7531 0.997988 -1.923370E-6 
1954 14.7531 0.997468 -2.422754E-6 
1955 14.6384 0.997266 -2.618816E-6 
1956 14.7149 0.997137 -2.745705E-6 
1957 14.6002 0.997284 -2.606807E-6 
1958 14.6002 0.996424 -3.436091E-6 
1959 14.6766 0.996770 -3.106695E-6 
1960 14.5620 0.997219 -2.677560E-6 
1961 14.6002 0.997683 -2.233431E-6 
1962 -9.9373 0.997193 -2.708173E-6 
1963 -13.8740 0.997818 -2.107564E-6 
1964 -13.6829 0.997480 -2.436543E-6 
1965 -13.6065 0.996662 -3.229802E-6 
1966 -13.4536 0.996684 -3.212109E-6 
1967 -13.4154 0.996950 -2.957824E-6 
1968 -13.6447 0.997027 -2.886075E-6 
1969 -13.7976 0.997638 -2.295216E-6 
1970 -13.7594 0.998324 -1.629737E-6 
1971 -13.5300 0.998351 -1.605286E-6 
1972 -13.6829 0.999103 -8.742176E-7 
1973 -13.7211 1.000133  1.296573E-7 
1974 -13.7976 1.000630  6.148468E-7 
1975 -13.7594 1.000816  7.976773E-7 
1976 -13.5683 1.000991  9.701065E-7 
1977 -13.8740 1.001681  1.646085E-6 
1978 -13.8358 1.001787  1.752106E-6 
1979 -13.9887 1.001059  1.039736E-6 
1980 -13.9887 1.000805  7.913102E-7 
1981 -14.2180 1.000947  9.317004E-7 
1982 -14.1798 1.000794  7.814041E-7 
1983 -14.3709 1.000868  8.556144E-7 
1984 -14.4855 1.000717  7.069697E-7 
1985 -14.4855 1.000625  6.170286E-7 
1986 -14.4473 1.000745  7.367753E-7 
1987 -14.4091 0.999984 -1.613744E-8 
1988 -14.3327 1.000297  2.939701E-7 
1989 -14.4473 1.000237  2.352476E-7 
1990 -14.4473 1.000922  9.149108E-7 
1991 -14.4473 1.000894  8.881409E-7 
1992 -14.4091 1.001489  1.480921E-6 
1993 -14.4091 1.001375  1.368759E-6 
1994 -14.5238 1.001656  1.649786E-6 
1995 -14.5620 1.002355  2.348807E-6 
1996 -14.5620 1.002686  2.681800E-6 
1997 -14.7531 1.002621  2.619520E-6 
1998 -14.8295 1.002694  2.694626E-6 
1999 -14.6384 1.002944  2.947750E-6 
2000 -14.5238 1.002407  2.412302E-6 
2001 -14.7913 1.002983  2.992617E-6 
2002 -14.8295 1.002314  2.323638E-6 
2003 -15.0971 1.002130  2.141618E-6 
2004 -19.3395 1.001079  1.085449E-6 
2005 -19.2631 1.001091  1.098910E-6 
2006 -19.2631 1.000680  6.857144E-7 
2007 -19.2631 1.000555  5.601519E-7 
2008 -19.2631 1.000190  1.915077E-7 
2009 -19.2249 1.000468  4.736670E-7 
2010 -19.3013 1.000222  2.250836E-7 
2011 -19.2631 1.000065  6.554448E-8 
2012 -19.2631 1.000965  9.788342E-7 
2013 -19.3013 1.000160  1.628363E-7 
2014 -19.3778 1.000574  5.838441E-7 
2015 -19.3013 1.001161  1.180819E-6 
2016 -19.4542 1.001569  1.597960E-6 
2017 -19.3395 1.002015  2.053838E-6 
2018 -14.4855 1.002913  2.972719E-6 
2019 -14.6766 1.003184  3.252493E-6 
2020 -14.4473 1.002232  2.282280E-6 
2021 -19.1484 1.002099  2.148325E-6 
2022 -19.2249 1.002362  2.419683E-6 
2023 -19.1867 1.001927  1.975910E-6 
2024 -14.2944 1.002085  2.140030E-6 
2025 -14.1033 1.002197  2.257239E-6 
2026 -13.8740 1.002051  2.109509E-6 
2027 -13.6447 1.001888  1.944153E-6 
2028 -13.6829 1.001631  1.681277E-6 
2029 -13.9887 1.001442  1.487575E-6 
2030 -13.8358 1.001497  1.545605E-6 
2031 16.6259 1.001257  1.299638E-6 
2032 -14.2180 1.001616  1.672049E-6 
2033 -13.8358 1.002030  2.101961E-6 
2034 -13.8358 1.003308  3.429034E-6 
2035 -13.7211 1.003152  3.270462E-6 
2036 -13.6447 1.003766  3.911941E-6 
2037 -13.7976 1.004162  4.327121E-6 
2038 -13.7594 1.005155  5.365301E-6 
2039 -14.1033 1.004850  5.052529E-6 
2040 -14.9442 1.005130  5.349223E-6 
2041 -15.3646 1.005605  5.850571E-6 
2042 -15.4028 1.005442  5.686045E-6 
2043 -15.3264 1.005947  6.220307E-6 
2044 -15.5557 1.005406  5.659977E-6 
2045 -15.4411 1.005015  5.255325E-6 
2046 -15.6704 1.004478  4.697050E-6 
2047 -15.7468 1.004805  5.045408E-6 
2048 -15.6704 1.004476  4.704141E-6 
2049 -15.4411 1.004990  5.249407E-6 
2050 -15.4411 1.005776  6.083205E-6 
2051 -15.5939 1.005800  6.113731E-6 
2052 -15.8615 1.005699  6.013778E-6 
2053 -15.6704 1.005481  5.788741E-6 
2054 -15.5939 1.005508  5.822994E-6 
2055 -15.5557 1.005601  5.927314E-6 
2056 -15.7086 1.006009  6.365077E-6 
2057 -15.9379 1.006025  6.387895E-6 
2058 -15.5557 1.005833  6.191089E-6 
2059 -15.4793 1.006149  6.532892E-6 
2060 -15.3646 1.006505  6.918087E-6 
2061 -15.3646 1.006517  6.936756E-6 
2062 -15.2117 1.006318  6.731367E-6 
2063 -14.6002 1.005582  5.953582E-6 
2064 15.4028 1.005432  5.798639E-6 
2065 -14.6002 1.004866  5.200053E-6 
2066 15.7086 1.004546  4.863085E-6 
2067 15.6704 1.004845  5.187623E-6 
2068 15.7850 1.004287  4.594316E-6 
2069 15.9379 1.005027  5.392893E-6 
2070 15.7850 1.005159  5.540218E-6 
2071 15.9761 1.005089  5.469832E-6 
2072 16.3583 1.005657  6.086251E-6 
2073 16.6641 1.006168  6.642335E-6 
2074 16.8170 1.006636  7.154035E-6 
2075 16.7023 1.006781  7.317431E-6 
2076 16.4348 1.006918  7.472005E-6 
2077 16.4730 1.006553  7.084850E-6 
2078 16.3966 1.006296  6.813406E-6 
2079 16.5494 1.005322  5.764834E-6 
2080 16.5494 1.005166  5.601413E-6 
2081 16.7788 1.005205  5.649046E-6 
2082 16.7788 1.004766  5.177316E-6 
2083 16.7405 1.005409  5.881446E-6 
2084 16.8934 1.005137  5.591532E-6 
2085 16.9317 1.004807  5.237575E-6 
2086 16.8934 1.003967  4.326199E-6 
2087 16.8170 1.003949  4.310698E-6 
2088 16.8170 1.003742  4.088328E-6 
2089 16.9317 1.003720  4.068478E-6 
2090 16.7788 1.003498  3.829479E-6 
2091 16.8170 1.003663  4.013819E-6 
2092 17.3521 1.003559  3.903463E-6 
2093 17.5050 1.004758  5.224251E-6 
2094 18.0783 1.005138  5.647106E-6 
2095 -14.2944 1.006047  6.651701E-6 
2096 -14.3327 1.005930  6.529247E-6 
2097 -14.2562 1.005258  5.795183E-6 
2098 -14.3709 1.005320  5.869164E-6 
2099 -14.2944 1.005706  6.301150E-6 
2100 -14.1798 1.005735  6.338890E-6 
2101 -14.1798 1.005602  6.197810E-6 
2102 -14.1033 1.005099  5.647035E-6 
2103 -19.4160 1.004898  5.429418E-6 
2104 -13.9122 1.005075  5.631216E-6 
2105 -13.6829 1.005396  5.993328E-6 
2106 -13.8358 1.005090  5.658724E-6 
2107 -13.8740 1.005067  5.638836E-6 
2108 -13.7976 1.005619  6.258383E-6 
2109 -13.8358 1.005897  6.574713E-6 
2110 -13.9122 1.005475  6.110265E-6 
2111 -14.0269 1.005886  6.574746E-6 
2112 -14.0269 1.005880  6.573902E-6 
2113 -18.8427 1.006090  6.816276E-6 
2114 -14.1416 1.006071  6.801428E-6 
2115 -18.8427 1.006307  7.071858E-6 
2116 -18.8427 1.006790  7.621049E-6 
2117 -18.8045 1.006782  7.619666E-6 
2118 -18.7662 1.006725  7.562030E-6 
2119 -18.8427 1.006617  7.448258E-6 
2120 -18.6898 1.006807  7.669345E-6 
2121 -18.6516 1.005885  6.637096E-6 
2122 -18.8045 1.005541  6.255155E-6 
2123 -18.6516 1.004049  4.574844E-6 
2124 -14.1033 1.003510  3.969381E-6 
2125 -18.5751 1.003205  3.628511E-6 
2126 -18.6898 1.003606  4.085935E-6 
2127 -14.3709 1.003328  3.774060E-6 
2128 -14.4091 1.002347  2.664861E-6 
2129 -14.3327 1.002498  2.838353E-6 
2130 -14.4091 1.002577  2.930565E-6 
2131 -14.3709 1.003010  3.426774E-6 
2132 -19.2631 1.003533  4.026528E-6 
2133 -19.2631 1.002503  2.855451E-6 
2134 13.1478 1.002185  2.494950E-6 
2135 13.2243 1.001976  2.258393E-6 
2136 -9.7462 1.002729  3.121474E-6 
2137 -18.8809 1.002604  2.981515E-6 
2138 -9.4022 1.002366  2.711278E-6 
2139 -9.4787 1.002986  3.425475E-6 
2140 -9.3640 1.002923  3.356291E-6 
2141 -14.2944 1.002368  2.721595E-6 
2142 -5.6948 1.003147  3.620805E-6 
2143 -5.6566 1.002414  2.780101E-6 
2144 -5.8095 1.002583  2.977191E-6 
2145 -14.8677 1.002780  3.207542E-6 
2146 -15.0588 1.002909  3.359093E-6 
2147 -9.0965 1.003324  3.841437E-6 
2148 -9.0965 1.003917  4.531285E-6 
2149 -9.1347 1.003646  4.222526E-6 
2150 -8.9818 1.004237  4.910944E-6 
2151 -14.3327 1.005084  5.898011E-6 
2152 -6.1153 1.005504  6.391145E-6 
2153 -6.0388 1.005957  6.923763E-6 
2154 -6.1917 1.005286  6.149597E-6 
2155 -6.2682 1.004700  5.474008E-6 
2156 -14.6002 1.004800  5.595702E-6 
2157 -14.6384 1.004830  5.635912E-6 
2158 -14.6766 1.005387  6.290970E-6 
2159 -14.7149 1.005137  6.004573E-6 
2160 -6.4593 1.005648  6.608279E-6 
2161 -14.6002 1.005798  6.789728E-6 
2162 -14.5620 1.005848  6.854818E-6 
2163 -14.6766 1.005739  6.734038E-6 
2164 -14.6766 1.006014  7.063149E-6 
2165 -15.0588 1.005672  6.667091E-6 
2166 -15.0588 1.005144  6.052456E-6 
2167 -14.9442 1.005657  6.662243E-6 
2168 -14.8295 1.005183  6.109573E-6 
2169 -14.7149 1.003606  4.254871E-6 
2170 -14.9060 1.003465  4.092732E-6 
2171 -14.7531 1.003952  4.671463E-6 
2172 -14.7149 1.003395  4.016795E-6 
2173 -14.6766 1.003742  4.432175E-6 
2174 -14.7149 1.003454  4.095119E-6 
2175 -14.7149 1.003112  3.692218E-6 
2176 -14.7531 1.002998  3.560892E-6 
2177 -14.7149 1.002633  3.130179E-6 
2178 -14.7149 1.002753  3.276188E-6 
2179 -14.7531 1.002843  3.385491E-6 
2180 -14.8295 1.002093  2.494527E-6 
2181 -14.9060 1.001581  1.886248E-6 
2182 -14.9824 1.001415  1.689536E-6 
2183 -14.9060 1.001249  1.493598E-6 
2184 -14.7531 1.001910  2.284790E-6 
2185 -14.7531 1.002457  2.942291E-6 
2186 -14.8295 1.002271  2.722067E-6 
2187 -14.9442 1.002702  3.242429E-6 
2188 -14.9060 1.003187  3.827505E-6 
2189 -14.9060 1.002341  2.814262E-6 
2190 -14.8677 1.001956  2.354060E-6 
2191 -15.0206 1.001805  2.174377E-6 
2192 -14.7531 1.001214  1.462925E-6 
2193 -14.7531 1.001415  1.707761E-6 
2194 -14.7913 1.001481  1.788973E-6 
2195 -14.7913 1.001394  1.684755E-6 
2196 -14.8295 1.001878  2.272512E-6 
2197 -14.6002 1.001747  2.115321E-6 
2198 3.3252 1.001580  1.915449E-6 
2199 3.2105 1.002806  3.403831E-6 
2200 -5.8859 1.003086  3.747082E-6 
2201 3.1341 1.002440  2.966130E-6 
2202 -6.2682 1.002453  2.983893E-6 
2203 -6.3446 1.002787  3.393773E-6 
2204 -6.4210 1.003007  3.665728E-6 
2205 -6.6121 1.003428  4.181982E-6 
2206 -6.6121 1.003193  3.899415E-6 
2207 -6.5739 1.003329  4.068771E-6 
2208 -6.5739 1.002740  3.351786E-6 
2209 2.7137 1.002678  3.279640E-6 
2210 2.6372 1.002438  2.988162E-6 
2211 2.6754 1.003028  3.714531E-6 
2212 2.7519 1.003355  4.119667E-6 
2213 2.7901 1.003566  4.382154E-6 
2214 14.9442 1.003399  4.181116E-6 
2215 15.0588 1.003204  3.944444E-6 
2216 15.1353 1.002795  3.445074E-6 
2217 14.8677 1.002603  3.210469E-6 
2218 14.8677 1.002845  3.512467E-6 
2219 2.8665 1.003847  4.754256E-6 
2220 2.7137 1.003403  4.209426E-6 
2221 15.6704 1.002850  3.528312E-6 
2222 3.4016 1.003471  4.301211E-6 
2223 3.2105 1.003688  4.574556E-6 
2224 3.3634 1.002895  3.593681E-6 
2225 3.4016 1.003251  4.039910E-6 
2226 3.2105 1.003058  3.803821E-6 
2227 6.2682 1.002790  3.473494E-6 
2228 6.0770 1.003039  3.786600E-6 
2229 5.8859 1.002741  3.418783E-6 
2230 -19.5306 1.003387  4.228537E-6 
2231 5.4655 1.004055  5.066543E-6 
2232 5.4273 1.004250  5.315575E-6 
2233 5.7713 1.004251  5.320864E-6 
2234 5.7713 1.004517  5.659070E-6 
2235 6.0770 1.003758  4.712242E-6 
2236 5.9242 1.003182  3.993659E-6 
2237 6.0388 1.002443  3.068659E-6 
2238 6.1153 1.002700  3.394797E-6 
2239 6.1535 1.003474  4.372706E-6 
2240 6.0770 1.003961  4.989400E-6 
2241 6.1153 1.003883  4.895370E-6 
2242 6.0006 1.003320  4.190023E-6 
2243 6.0006 1.003667  4.632352E-6 
2244 6.0388 1.003633  4.593139E-6 
2245 6.0770 1.003884  4.915399E-6 
2246 6.0006 1.003827  4.846805E-6 
2247 6.0388 1.003978  5.043742E-6 
2248 6.1153 1.003386  4.296448E-6 
2249 6.1153 1.002295  2.914787E-6 
2250 -19.1102 1.003550  4.513453E-6 
2251 6.0770 1.004016  5.109632E-6 
2252 -19.1102 1.003916  4.987435E-6 
2253 -13.8358 1.004122  5.254690E-6 
2254 -13.7594 1.005024  6.410283E-6 
2255 -13.7976 1.005059  6.460251E-6 
2256 -5.8859 1.004751  6.072053E-6 
2257 -13.6829 1.005237  6.700208E-6 
2258 -6.0006 1.005193  6.648780E-6 
2259 -13.9505 1.005210  6.677089E-6 
2260 -13.8740 1.004414  5.661660E-6 
2261 -13.7976 1.004630  5.944730E-6 
2262 -13.9505 1.004594  5.903886E-6 
2263 -14.2562 1.004962  6.382986E-6 
2264 -14.2180 1.004580  5.896038E-6 
2265 -14.3709 1.005645  7.273708E-6 
2266 -13.9122 1.006316  8.146257E-6 
2267 -5.9242 1.006965  8.990917E-6 
2268 -13.3007 1.007097  9.170058E-6 
2269 -13.8740 1.006520  8.431738E-6 
2270 -14.1416 1.006089  7.881067E-6 
2271 -14.4473 1.005375  6.963556E-6 
2272 -14.3327 1.004808  6.235149E-6 
2273 -14.0269 1.004297  5.577176E-6 
2274 -14.2944 1.003983  5.174232E-6 
2275 13.6447 1.003562  4.631572E-6 
2276 13.7594 1.004014  5.224409E-6 
2277 13.7594 1.003362  4.379082E-6 
2278 13.9122 1.003639  4.744479E-6 
2279 -2.6372 1.003680  4.802059E-6 
2280 -5.2362 1.003362  4.391395E-6 
2281 -5.3126 1.002976  3.889820E-6 
2282 -5.3509 1.002770  3.623721E-6 
2283 -5.3509 1.002384  3.121614E-6 
2284 -2.6372 1.001744  2.285977E-6 
2285 -2.7519 1.001377  1.806870E-6 
2286 -2.8665 1.001553  2.039581E-6 
2287 -3.0194 1.001537  2.020224E-6 
2288 -15.0971 1.001823  2.398176E-6 
2289 -15.1353 1.002586  3.404607E-6 
2290 -15.2117 1.002834  3.734866E-6 
2291 -15.3264 1.001967  2.594792E-6 
2292 -3.3252 1.001519  2.004997E-6 
2293 -15.3646 1.000817  1.079472E-6 
2294 -15.6322 1.000556  7.358846E-7 
2295 -15.8997 0.999694 -4.047315E-7 
2296 -15.7850 0.999890 -1.460236E-7 
2297 -15.7850 1.000201  2.661986E-7 
2298 -15.7468 0.999743 -3.407229E-7 
2299 -3.5927 1.000093  1.238530E-7 
2300 -15.7468 1.000185  2.453305E-7 
2301 -14.4091 1.000425  5.650360E-7 
2302 -14.4091 1.000983  1.309151E-6 
2303 -15.9761 1.000815  1.087167E-6 
2304 -16.1672 1.001626  2.169696E-6 
2305 -16.2819 1.002405  3.211826E-6 
2306 -15.8615 1.002460  3.287681E-6 
2307 -16.0908 1.002887  3.862017E-6 
2308 -15.8997 1.002732  3.658211E-6 
2309 -15.2117 1.003303  4.427149E-6 
2310 -15.5175 1.002068  2.774218E-6 
2311 -9.0965 1.001912  2.566600E-6 
2312 -9.2111 1.001415  1.901903E-6 
2313 -9.1347 1.002325  3.127564E-6 
2314 14.1416 1.002522  3.394619E-6 
2315 -9.2876 1.002627  3.539848E-6 
2316 -9.0582 1.001918  2.586508E-6 
2317 14.0269 1.001218  1.643617E-6 
2318 -8.9054 1.001301  1.758137E-6 
2319 -8.9818 0.999765 -3.182670E-7 
2320 -9.0582 0.999282 -9.719287E-7 
2321 -9.0200 0.999113 -1.201655E-6 
2322 -8.8289 0.999567 -5.876589E-7 
2323 14.1798 0.999000 -1.357223E-6 
2324 14.2562 0.999384 -8.359872E-7 
2325 14.2180 0.999711 -3.925126E-7 
2326 14.0651 0.999966 -4.684314E-8 
2327 13.9887 0.999352 -8.823884E-7 
2328 13.9505 1.000047  6.372912E-8 
2329 -19.5306 1.000355  4.845829E-7 
2330 19.4542 1.000478  6.530274E-7 
2331 13.9887 1.001144  1.564067E-6 
2332 14.0269 1.001788  2.445113E-6 
2333 14.1416 1.001893  2.591771E-6 
2334 14.2562 1.001149  1.573821E-6 
2335 14.3327 1.000498  6.826818E-7 
2336 14.3327 0.999920 -1.093691E-7 
2337 14.3327 0.999901 -1.363573E-7 
2338 14.4473 1.000322  4.433141E-7 
2339 14.3709 1.000725  9.981332E-7 
2340 -13.2625 1.000986  1.358508E-6 
2341 -13.4536 1.001351  1.862735E-6 
2342 -13.2625 1.001350  1.862851E-6 
2343 -13.3007 1.000719  9.925135E-7 
2344 -13.4154 1.000835  1.154773E-6 
2345 -13.4918 1.000832  1.150930E-6 
2346 -13.4536 1.001125  1.558110E-6 
2347 -13.6065 1.001313  1.820380E-6 
2348 -13.7976 1.000685  9.507055E-7 
2349 -13.7976 1.001794  2.490614E-6 
2350 -13.9887 1.002545  3.536454E-6 
2351 -14.0269 1.002706  3.764028E-6 
2352 -14.2944 1.002454  3.416590E-6 
2353 -14.2562 1.002682  3.737047E-6 
2354 -14.2562 1.003024  4.216454E-6 
2355 -14.2180 1.003218  4.491836E-6 
2356 -14.1798 1.001892  2.642808E-6 
2357 -14.2180 1.002165  3.027450E-6 
2358 -14.1798 1.001900  2.658606E-6 
2359 -14.2944 1.000754  1.056398E-6 
2360 -14.2944 0.999992 -1.179859E-8 
2361 -14.4091 0.999411 -8.256963E-7 
2362 -14.4091 0.998762 -1.737701E-6 
2363 -14.4091 0.999015 -1.384140E-6 
2364 -14.2944 0.999193 -1.135288E-6 
2365 -14.3327 0.999074 -1.304042E-6 
2366 -14.3327 0.998725 -1.796717E-6 
2367 -14.3709 0.998879 -1.581637E-6 
2368 -14.5620 0.998649 -1.907336E-6 
2369 -14.6384 0.998050 -2.754863E-6 
2370 -14.6002 0.998032 -2.782719E-6 
2371 -14.3327 0.998295 -2.413448E-6 
2372 -14.4855 0.998529 -2.083145E-6 
2373 -16.5877 0.998729 -1.802130E-6 
2374 -16.3583 0.998763 -1.754900E-6 
2375 1.3377 0.998637 -1.935498E-6 
2376 -16.0526 0.999163 -1.189922E-6 
2377 -15.4411 0.999391 -8.661233E-7 
2378 1.4142 0.999889 -1.582396E-7 
2379 1.4906 0.999422 -8.242890E-7 
2380 1.5670 0.998875 -1.604663E-6 
2381 -15.6322 0.999522 -6.820515E-7 
2382 -15.4411 0.999195 -1.149902E-6 
2383 19.3395 0.999979 -3.069558E-8 
2384 19.4160 0.999141 -1.229527E-6 
2385 19.4160 0.998701 -1.861430E-6 
2386 19.4924 0.999015 -1.411672E-6 
2387 19.5306 0.998759 -1.780836E-6 
2388 15.3264 0.998816 -1.700212E-6 
2389 15.4028 0.999332 -9.598979E-7 
2390 -19.5689 0.999718 -4.051019E-7 
2391 15.4411 0.999979 -3.000536E-8 
2392 -19.5306 1.000821  1.183865E-6 
2393 15.5175 1.000475  6.851579E-7 
2394 15.5939 1.000650  9.385580E-7 
2395 15.6704 1.000707  1.021676E-6 
2396 15.5175 1.001725  2.495095E-6 
2397 15.6322 1.001416  2.048897E-6 
2398 15.5557 1.001393  2.017886E-6 
2399 15.5557 1.001439  2.085871E-6 
2400 15.4028 1.002519  3.654982E-6 
2401 15.4411 1.002808  4.078108E-6 
2402 15.4411 1.003210  4.666107E-6 
2403 15.4793 1.003427  4.986061E-6 
2404 15.2882 1.002980  4.338905E-6 
2405 15.2500 1.002430  3.541246E-6 
2406 15.2882 1.001886  2.750309E-6 
2407 15.1353 1.002257  3.295149E-6 
2408 15.1735 1.002036  2.974373E-6 
2409 -14.2562 1.002395  3.501683E-6 
2410 -14.2944 1.002733  4.000433E-6 
2411 -14.3709 1.002219  3.250622E-6 
2412 -14.4473 1.002940  4.310336E-6 
2413 -14.3327 1.002032  2.982448E-6 
2414 -14.3327 1.002856  4.194720E-6 
2415 -14.2944 1.003011  4.425166E-6 
2416 -14.2944 1.003579  5.265099E-6 
2417 -14.2562 1.003403  5.011127E-6 
2418 -14.2562 1.003510  5.172340E-6 
2419 -14.2944 1.003569  5.264208E-6 
2420 -14.2562 1.004637  6.845246E-6 
2421 -14.2562 1.004821  7.123468E-6 
2422 -14.3327 1.004865  7.193642E-6 
2423 -14.4091 1.005391  7.978137E-6 
2424 -14.4473 1.005201  7.704450E-6 
2425 -14.4091 1.005076  7.524607E-6 
2426 -14.3709 1.004214  6.252876E-6 
2427 -14.3327 1.004026  5.978165E-6 
2428 -14.2180 1.003792  5.636404E-6 
2429 -14.1416 1.003658  5.442021E-6 
2430 -1.2995 1.002682  3.992432E-6 
2431 -1.2231 1.002423  3.610163E-6 
2432 -1.0702 1.002654  3.958091E-6 
2433 -13.9505 1.003172  4.734521E-6 
2434 -1.2613 1.003530  5.273988E-6 
2435 -1.2613 1.004008  5.993189E-6 
2436 -1.0320 1.004282  6.407839E-6 
2437 -1.2231 1.004233  6.339649E-6 
2438 -1.2231 1.004558  6.831539E-6 
2439 -1.2231 1.004513  6.771312E-6 
2440 -1.3377 1.004648  6.978908E-6 
2441 -1.1466 1.004511  6.778877E-6 
2442 -1.1084 1.004011  6.032888E-6 
2443 -1.0702 1.004599  6.922551E-6 
2444 -1.1084 1.003998  6.023943E-6 
2445 -1.1084 1.004595  6.927999E-6 
2446 -1.1084 1.004323  6.524354E-6 
2447 -1.0702 1.005515  8.329449E-6 
2448 -1.0702 1.005246  7.931100E-6 
2449 -1.0702 1.006012  9.095979E-6 
2450 -1.0702 1.005578  8.447337E-6 
2451 -1.0320 1.004964  7.522751E-6 
2452 -1.0702 1.004063  6.163114E-6 
2453 -1.0320 1.003434  5.213116E-6 
2454 -0.8791 1.003445  5.234340E-6 
2455 -0.8791 1.003899  5.929131E-6 
2456 -0.9173 1.004466  6.797515E-6 
2457 -0.9937 1.004626  7.046682E-6 
2458 -0.9555 1.005655  8.621560E-6 
2459 -0.9555 1.005365  8.185476E-6 
2460 -0.8408 1.005867  8.958948E-6 
2461 -0.9937 1.006193  9.465064E-6 
2462 -0.9173 1.005353  8.188393E-6 
2463 -0.9173 1.004601  7.043514E-6 
2464 -0.9173 1.005245  8.037133E-6 
2465 -0.7262 1.005780  8.863389E-6 
2466 -0.1911 1.005849  8.977252E-6 
2467 0.1529 1.004946  7.597295E-6 
2468 14.9442 1.005056  7.773746E-6 
2469 14.8677 1.004597  7.073570E-6 
2470 14.9824 1.004094  6.304208E-6 
2471 14.9060 1.004685  7.220198E-6 
2472 14.8677 1.005262  8.117223E-6 
2473 14.8295 1.005459  8.427330E-6 
2474 14.7531 1.005452  8.423710E-6 
2475 14.7531 1.004741  7.331649E-6 
2476 -0.5733 1.005180  8.017290E-6 
2477 -0.6880 1.004327  6.702884E-6 
2478 14.9060 1.004914  7.617580E-6 
2479 -0.4586 1.004277  6.635582E-6 
2480 -0.4586 1.003838  5.960504E-6 
2481 -0.3822 1.003346  5.199952E-6 
2482 -0.4204 1.003863  6.009326E-6 
2483 -0.3822 1.004226  6.579246E-6 
2484 -0.3822 1.004365  6.800965E-6 
2485 -0.4204 1.004263  6.647479E-6 
2486 -0.4204 1.004188  6.536010E-6 
2487 -0.3822 1.005184  8.098322E-6 
2488 -0.3440 1.004782  7.476256E-6 
2489 -0.3058 1.005526  8.646188E-6 
2490 -0.3058 1.006135  9.607062E-6 
2491 -0.4586 1.005732  8.983711E-6 
2492 -0.4969 1.006301  9.882829E-6 
2493 -0.5733 1.006077  9.540502E-6 
2494 -0.6115 1.005793  9.101536E-6 
2495 -0.6115 1.005320  8.366374E-6 
2496 -0.6880 1.005698  8.968052E-6 
2497 -0.6497 1.006178  9.731252E-6 
2498 -0.6497 1.005965  9.402924E-6 
2499 -0.7262 1.006421  1.013012E-5 
2500 -0.6880 1.005952  9.398627E-6 
2501 -0.6880 1.005820  9.197958E-6 
2502 -0.6880 1.005365  8.485750E-6 
2503 -0.5733 1.005460  8.642449E-6 
2504 -0.6497 1.006096  9.657490E-6 
2505 -0.6115 1.007038  1.115998E-5 
2506 -0.7644 1.006515  1.033847E-5 
2507 -0.6880 1.006754  1.072643E-5 
2508 -0.8408 1.006520  1.036305E-5 
2509 -0.8791 1.006246  9.935995E-6 
2510 -0.8791 1.006906  1.099530E-5 
2511 -0.9555 1.007665  1.221479E-5 
2512 -0.9555 1.007950  1.267878E-5 
2513 -0.9173 1.008224  1.312663E-5 
2514 -0.9173 1.008907  1.422852E-5 
2515 -0.9555 1.008983  1.436128E-5 
2516 -0.8791 1.009339  1.494312E-5 
2517 -0.8791 1.008893  1.424157E-5 
2518 -0.8026 1.008958  1.435701E-5 
2519 -0.8026 1.009131  1.464726E-5 
2520 -0.7262 1.008415  1.350946E-5 
2521 -0.6115 1.007757  1.246330E-5 
2522 -0.4586 1.008069  1.297588E-5 
2523 -0.4969 1.008533  1.373317E-5 
2524 -0.4969 1.007991  1.287113E-5 
2525 -0.4969 1.008525  1.374281E-5 
2526 -0.5351 1.007873  1.270200E-5 
2527 -0.4204 1.008370  1.351491E-5 
2528 -0.3058 1.007761  1.254261E-5 
2529 -0.3440 1.008162  1.320117E-5 
2530 -0.2293 1.008800  1.424443E-5 
2531 -0.1911 1.008719  1.412476E-5 
2532 -0.2293 1.008763  1.420772E-5 
2533 -0.0382 1.008206  1.331580E-5 
2534 0.1529 1.008162  1.325475E-5 
2535 0.1147 1.008327  1.353438E-5 
2536 0.1147 1.008968  1.458829E-5 
2537 0.0382 1.008329  1.356029E-5 
2538 -0.0382 1.007932  1.292430E-5 
2539 0.0000 1.007544  1.230259E-5 
2540 0.0000 1.006799  1.109676E-5 
2541 -0.0764 1.006827  1.115118E-5 
2542 -0.0764 1.006248  1.021338E-5 
2543 -0.1147 1.005804  9.496251E-6 
2544 -0.1911 1.005452  8.926582E-6 
2545 -0.1911 1.005794  9.494639E-6 
2546 -0.2293 1.005574  9.141827E-6 
2547 -0.1911 1.005490  9.010902E-6 
2548 -0.2675 1.005224  8.581951E-6 
2549 -0.4204 1.005174  8.507226E-6 
2550 -0.4586 1.004592  7.556087E-6 
2551 -0.6497 1.005888  9.695445E-6 
2552 -0.6115 1.005411  8.918163E-6 
2553 -0.6497 1.005768  9.513621E-6 
2554 -0.6115 1.005498  9.075640E-6 
2555 -0.6880 1.004581  7.568209E-6 
2556 -0.8026 1.004919  8.133536E-6 
2557 -0.9555 1.004593  7.601473E-6 
2558 -0.9937 1.004998  8.277270E-6 
2559 -1.1084 1.004784  7.929598E-6 
2560 -1.0320 1.005220  8.658726E-6 
2561 -0.9937 1.005280  8.766745E-6 
2562 -0.9937 1.005821  9.672503E-6 
2563 -0.9937 1.006184  1.028429E-5 
2564 -0.9173 1.005991  9.971398E-6 
2565 -0.9555 1.005623  9.366635E-6 
2566 -1.0320 1.005347  8.914172E-6 
2567 -1.2995 1.006265  1.045286E-5 
2568 -1.5670 1.006425  1.072850E-5 
2569 -1.4906 1.006614  1.105263E-5 
2570 -1.4524 1.006652  1.112446E-5 
2571 -1.6053 1.006360  1.064502E-5 
2572 -1.4524 1.006739  1.128955E-5 
2573 -0.4204 1.007052  1.182323E-5 
2574 0.4204 1.006472  1.085945E-5 
2575 0.4969 1.006682  1.122063E-5 
2576 0.3440 1.006171  1.037025E-5 
2577 -4.7776 1.006182  1.039760E-5 
2578 -4.5865 1.006320  1.063803E-5 
2579 0.6115 1.005939  1.000460E-5 
2580 -3.7838 1.006542  1.103011E-5 
2581 -4.3953 1.005850  9.871056E-6 
2582 -3.4016 1.006098  1.029810E-5 
2583 -3.8220 1.005368  9.073144E-6 
2584 -4.6629 1.005638  9.535904E-6 
2585 1.4142 1.006097  1.032105E-5 
2586 -1.9492 1.006149  1.041742E-5 
2587 1.4906 1.005989  1.015541E-5 
2588 1.2613 1.006055  1.027453E-5 
2589 -5.1598 1.006337  1.076236E-5 
2590 -5.2362 1.006133  1.042449E-5 
2591 -5.3509 1.006470  1.100559E-5 
2592 -5.3891 1.005266  8.965522E-6 
2593 0.3822 1.005421  9.236652E-6 
2594 0.4586 1.005024  8.567356E-6 
2595 0.4969 1.004531  7.731919E-6 
2596 0.2675 1.004676  7.985847E-6 
2597 0.2293 1.003938  6.731486E-6 
2598 0.0764 1.003995  6.833805E-6 
2599 -0.3058 1.003700  6.335302E-6 
2600 -0.4204 1.003825  6.554260E-6 
2601 -1.1848 1.004270  7.322299E-6 
2602 -0.3058 1.003802  6.525154E-6 
2603 -0.1911 1.003750  6.440435E-6 
2604 -0.1529 1.003963  6.812281E-6 
2605 -0.0382 1.003699  6.362871E-6 
2606 -0.1147 1.003970  6.835108E-6 
2607 -5.7713 1.003805  6.556579E-6 
2608 0.3440 1.003089  5.326690E-6 
2609 -5.7713 1.003441  5.938808E-6 
2610 -5.6948 1.003289  5.681371E-6 
2611 -5.7331 1.003035  5.247294E-6 
2612 -5.6184 1.002624  4.539980E-6 
2613 19.2631 1.002056  3.560337E-6 
2614 19.1484 1.002550  4.418248E-6 
2615 19.2631 1.002880  4.994082E-6 
2616 19.3778 1.002975  5.163271E-6 
2617 19.4542 1.003107  5.396091E-6 
2618 19.3778 1.003079  5.352071E-6 
2619 19.2631 1.002488  4.329128E-6 
2620 19.1484 1.001547  2.693077E-6 
2621 19.3395 1.000971  1.692702E-6 
2622 19.3395 1.001535  2.677040E-6 
2623 19.2631 1.001431  2.497420E-6 
2624 19.2631 1.001927  3.365792E-6 
2625 14.0269 1.001177  2.057939E-6 
2626 19.2631 1.000750  1.312603E-6 
2627 14.1033 1.001067  1.867549E-6 
2628 14.3709 1.001379  2.415607E-6 
2629 14.2562 1.002034  3.566306E-6 
2630 14.1033 1.002509  4.402997E-6 
2631 14.2562 1.002590  4.548432E-6 
2632 -14.2944 1.002302  4.046065E-6 
2633 14.5238 1.002538  4.464471E-6 
2634 -14.0651 1.002842  5.004347E-6 
2635 -14.4091 1.002608  4.594740E-6 
2636 -14.1798 1.002956  5.212806E-6 
2637 -14.1033 1.002414  4.260669E-6 
2638 -14.1798 1.002412  4.260649E-6 
2639 -14.1798 1.002444  4.320446E-6 
2640 -14.2180 1.002240  3.962262E-6 
2641 -14.2944 1.001994  3.530325E-6 
2642 -14.4473 1.002433  4.311725E-6 
2643 -14.1798 1.003489  6.187595E-6 
2644 -14.2944 1.002962  5.255862E-6 
2645 -14.4091 1.002729  4.846621E-6 
2646 -14.2180 1.002222  3.949985E-6 
2647 -14.3709 1.002713  4.826662E-6 
2648 -14.2180 1.002928  5.212718E-6 
2649 -14.2562 1.002949  5.253529E-6 
2650 -14.1033 1.003781  6.741994E-6 
2651 -14.1798 1.004044  7.217480E-6 
2652 -14.3327 1.003511  6.271454E-6 
2653 -14.2944 1.003281  5.864854E-6 
2654 -14.2944 1.003157  5.647468E-6 
2655 -14.2562 1.003502  6.268709E-6 
2656 -14.1416 1.003537  6.337123E-6 
2657 -5.6184 1.003109  5.574025E-6 
2658 -14.0269 1.002828  5.075074E-6 
2659 -13.9887 1.003490  6.266904E-6 
2660 -14.2180 1.003164  5.686114E-6 
2661 -14.2180 1.002924  5.259967E-6 
2662 -14.0651 1.003098  5.576324E-6 
2663 -14.2180 1.002730  4.917954E-6 
2664 -14.0651 1.002326  4.192848E-6 
2665 -13.8740 1.002497  4.505963E-6 
2666 14.2180 1.002703  4.881567E-6 
2667 -14.0651 1.003572  6.455113E-6 
2668 14.2562 1.003862  6.985068E-6 
2669 14.1416 1.004063  7.353537E-6 
2670 14.2180 1.004157  7.530705E-6 
2671 14.3327 1.004652  8.433221E-6 
2672 14.3709 1.004139  7.509729E-6 
2673 14.3327 1.003554  6.453824E-6 
2674 14.4091 1.003810  6.923154E-6 
2675 14.4091 1.003717  6.760070E-6 
2676 14.3709 1.003836  6.981289E-6 
2677 14.4855 1.003223  5.871544E-6 
2678 14.6384 1.003215  5.861209E-6 
2679 14.7149 1.003543  6.464482E-6 
2680 14.7149 1.003231  5.898764E-6 
2681 14.6766 1.003133  5.725532E-6 
2682 14.6384 1.004202  7.683557E-6 
2683 14.6766 1.004078  7.462518E-6 
2684 14.7531 1.003883  7.111120E-6 
2685 14.6384 1.003550  6.506208E-6 
2686 -19.3778 1.004187  7.680951E-6 
2687 15.2500 1.004539  8.332497E-6 
2688 -19.5689 1.004297  7.894147E-6 
2689 -15.1735 1.003514  6.461361E-6 
2690 19.4160 1.003219  5.922981E-6 
2691 -6.3828 1.003108  5.722741E-6 
2692 -6.0006 1.003498  6.447546E-6 
2693 -5.9242 1.003261  6.014297E-6 
2694 19.3778 1.003459  6.385341E-6 
2695 -5.8859 1.003205  5.921254E-6 
2696 -6.0388 1.002802  5.179483E-6 
2697 -5.9242 1.002584  4.781563E-6 
2698 -5.8859 1.002266  4.196349E-6 
2699 -6.0006 1.001897  3.514899E-6 
2700 2.0639 1.001870  3.467643E-6 
2701 2.1403 1.002354  4.368810E-6 
2702 2.1786 1.003087  5.734583E-6 
2703 2.2550 1.002971  5.521789E-6 
2704 2.3314 1.002975  5.534766E-6 
2705 -5.3891 1.003576  6.657850E-6 
2706 -5.3126 1.003948  7.355275E-6 
2707 -5.3126 1.003323  6.197136E-6 
2708 2.0639 1.003194  5.959677E-6 
2709 1.8728 1.002904  5.423081E-6 
2710 1.6817 1.003426  6.402448E-6 
2711 19.3778 1.003001  5.612690E-6 
2712 19.5306 1.002126  3.979701E-6 
2713 19.3395 1.001933  3.620301E-6 
2714 2.7519 1.001829  3.428916E-6 
2715 2.8665 1.002514  4.716715E-6 
2716 2.9812 1.002224  4.175832E-6 
2717 2.8665 1.002396  4.502299E-6 
2718 2.8665 1.002282  4.291765E-6 
2719 -19.5306 1.002466  4.640596E-6 
2720 -19.3395 1.002237  4.213729E-6 
2721 -19.3395 1.002407  4.536822E-6 
2722 -19.3013 1.002377  4.483858E-6 
2723 -19.3395 1.002472  4.667849E-6 
2724 -19.1867 1.002156  4.073172E-6 
2725 -19.1102 1.002609  4.934079E-6 
2726 -18.9191 1.002113  3.998450E-6 
2727 -19.1102 1.002010  3.806485E-6 
2728 -18.9956 1.002173  4.118056E-6 
2729 -19.0338 1.002330  4.418490E-6 
2730 -19.1484 1.002550  4.840783E-6 
2731 -19.3395 1.002075  3.941726E-6 
2732 -19.3013 1.001060  2.015272E-6 
2733 -19.3778 1.001237  2.353168E-6 
2734 -19.4160 1.000680  1.294262E-6 
2735 -19.4160 1.001051  2.002464E-6 
2736 -19.4542 1.001705  3.251420E-6 
2737 -19.4924 1.002476  4.726033E-6 
2738 -19.5689 1.003101  5.921892E-6 
2739 19.1867 1.003175  6.068075E-6 
2740 19.4542 1.003415  6.532897E-6 
2741 15.0206 1.004225  8.087590E-6 
2742 15.3646 1.004473  8.568732E-6 
2743 15.2500 1.004338  8.317001E-6 
2744 15.5939 1.004590  8.806472E-6 
2745 15.7468 1.004671  8.969158E-6 
2746 15.6704 1.004469  8.587672E-6 
2747 15.3646 1.004203  8.083487E-6 
2748 15.3264 1.004869  9.370423E-6 
2749 -10.9693 1.004466  8.601762E-6 
2750 -10.8928 1.005334  1.028161E-5 
2751 -11.3515 1.005442  1.049767E-5 
2752 -11.2368 1.005378  1.038210E-5 
2753 -11.4661 1.006029  1.164856E-5 
2754 -6.3446 1.006760  1.307045E-5 
2755 -6.3446 1.006494  1.256589E-5 
2756 -12.2305 1.007292  1.412137E-5 
2757 -11.8483 1.007353  1.424966E-5 
2758 -12.4981 1.007678  1.489000E-5 
2759 -12.9567 1.007163  1.390358E-5 
2760 -13.2625 1.007068  1.372819E-5 
2761 -13.3389 1.006529  1.269103E-5 
2762 -13.4154 1.006939  1.349807E-5 
2763 -13.3771 1.007492  1.458577E-5 
2764 -13.3771 1.007781  1.516095E-5 
2765 -13.5300 1.007103  1.384898E-5 
2766 -13.5300 1.006438  1.256314E-5 
2767 -13.6065 1.006202  1.211200E-5 
2768 -13.5300 1.005201  1.016379E-5 
2769 -13.6447 1.005063  9.901976E-6 
2770 -13.7211 1.004414  8.640054E-6 
2771 -13.7211 1.003266  6.397958E-6 
2772 -1.0320 1.004232  8.296022E-6 
2773 -0.8408 1.004822  9.459642E-6 
2774 -0.8791 1.004440  8.716908E-6 
2775 -0.9173 1.004547  8.934237E-6 
2776 -13.8358 1.004167  8.192863E-6 
2777 -13.9122 1.004722  9.290696E-6 
2778 -13.8740 1.004752  9.357601E-6 
2779 -13.8358 1.004791  9.441078E-6 
2780 -13.9122 1.004073  8.033487E-6 
2781 -14.0269 1.004055  8.003311E-6 
2782 -14.0269 1.003632  7.174123E-6 
2783 -14.0269 1.003627  7.169541E-6 
2784 -14.0651 1.002852  5.641550E-6 
2785 -13.9887 1.002614  5.174275E-6 
2786 -1.2995 1.002037  4.035050E-6 
2787 -1.2231 1.002176  4.314386E-6 
2788 -0.8791 1.001513  3.001649E-6 
2789 -0.9937 1.001548  3.074888E-6 
2790 -0.9937 1.001777  3.531158E-6 
2791 -1.1466 1.002383  4.739630E-6 
2792 -0.7644 1.002513  5.001614E-6 
2793 -0.3440 1.002375  4.729716E-6 
2794 0.0000 1.003224  6.426962E-6 
2795 -0.1147 1.003919  7.817593E-6 
2796 -0.0382 1.004367  8.716979E-6 
2797 2.4843 1.004353  8.697320E-6 
2798 2.5990 1.004213  8.423081E-6 
2799 15.3646 1.004150  8.303365E-6 
2800 15.5175 1.004406  8.823246E-6 
2801 15.4793 1.005215  1.044988E-5 
2802 15.5557 1.004695  9.415209E-6 
2803 15.4793 1.005054  1.014255E-5 
2804 -14.3327 1.005428  1.090225E-5 
2805 -14.2944 1.005351  1.075469E-5 
2806 -14.4091 1.005139  1.033684E-5 
2807 -14.5238 1.004751  9.563621E-6 
2808 -14.7149 1.003932  7.921305E-6 
2809 -14.7531 1.003381  6.815542E-6 
2810 -14.6766 1.003485  7.030954E-6 
2811 -14.5620 1.003267  6.596572E-6 
2812 -14.7531 1.003930  7.939952E-6 
2813 -14.8677 1.003552  7.182452E-6 
2814 -14.8295 1.004019  8.133488E-6 
2815 -14.7531 1.004225  8.556980E-6 
2816 -14.8677 1.004594  9.310694E-6 
2817 -14.9824 1.004253  8.625156E-6 
2818 -14.8295 1.004629  9.395016E-6 
2819 -14.7531 1.004056  8.238819E-6 
2820 -14.7531 1.003305  6.717647E-6 
2821 -14.6384 1.002560  5.208610E-6 
2822 -14.8295 1.003011  6.129333E-6 
2823 -14.7531 1.003243  6.607679E-6 
2824 -14.7913 1.002686  5.475343E-6 
2825 -14.6766 1.001353  2.760370E-6 
2826 -14.6766 1.000997  2.036467E-6 
2827 -14.6002 1.000922  1.883926E-6 
2828 -14.7531 1.001551  3.171120E-6 
2829 -14.4473 1.001723  3.526539E-6 
2830 -14.2562 1.000906  1.854682E-6 
2831 -14.4855 1.001052  2.156398E-6 
2832 -14.3327 1.001473  3.021842E-6 
2833 -14.4855 1.001015  2.084388E-6 
2834 -14.4091 1.000841  1.728420E-6 
2835 -14.3327 1.001201  2.468800E-6 
2836 -14.3327 1.001958  4.027580E-6 
2837 -14.4091 1.001689  3.476620E-6 
2838 2.2932 1.002214  4.561034E-6 
2839 -14.2562 1.002620  5.402301E-6 
2840 19.3395 1.002917  6.019177E-6 
2841 -14.1798 1.002726  5.629930E-6 
2842 -14.2562 1.002495  5.156363E-6 
2843 -14.1416 1.002251  4.654798E-6 
2844 1.4906 1.002197  4.547650E-6 
2845 -14.2944 1.001790  3.707299E-6 
2846 -14.0269 1.001646  3.412545E-6 
2847 1.6053 1.002207  4.578578E-6 
2848 -14.0269 1.002522  5.234255E-6 
2849 -14.1033 1.003023  6.279186E-6 
2850 -13.8740 1.003941  8.193553E-6 
2851 -14.0651 1.004600  9.568763E-6 
2852 -13.9122 1.003873  8.063431E-6 
2853 -14.3709 1.003832  7.983260E-6 
2854 -14.6002 1.003639  7.587061E-6 
2855 -14.8295 1.003547  7.401907E-6 
2856 1.5288 1.003525  7.360805E-6 
2857 -6.0006 1.003881  8.110003E-6 
2858 -15.0971 1.004069  8.509729E-6 
2859 -6.0006 1.004165  8.716682E-6 
2860 -6.0770 1.004889  1.023894E-5 
2861 -6.0006 1.004240  8.885756E-6 
2862 -6.0006 1.003843  8.060444E-6 
2863 -6.0770 1.003765  7.901930E-6 
2864 -6.0770 1.003834  8.054144E-6 
2865 -6.1153 1.003149  6.620431E-6 
2866 -6.0388 1.002925  6.154228E-6 
2867 -6.0006 1.003504  7.376359E-6 
2868 -5.9624 1.003595  7.574223E-6 
2869 -5.8095 1.004575  9.645103E-6 
2870 -5.7713 1.004105  8.661322E-6 
2871 -5.6948 1.004757  1.004350E-5 
2872 -5.5420 1.004953  1.046578E-5 
2873 -5.5802 1.005262  1.112789E-5 
2874 -5.3891 1.005633  1.191950E-5 
2875 -5.5420 1.006019  1.274557E-5 
2876 14.9442 1.005544  1.174848E-5 
2877 14.9824 1.005148  1.091829E-5 
2878 14.9060 1.004724  1.002650E-5 
2879 15.0588 1.004766  1.012346E-5 
2880 2.0257 1.004562  9.696806E-6 
2881 1.9492 1.004432  9.428087E-6 
2882 1.9875 1.004091  8.708839E-6 
2883 14.8295 1.003417  7.279340E-6 
2884 14.8677 1.003935  8.387872E-6 
2885 15.0206 1.004797  1.023395E-5 
2886 14.8295 1.004780  1.020437E-5 
2887 14.6766 1.003994  8.533476E-6 
2888 14.7913 1.003738  7.992437E-6 
2889 14.7531 1.003264  6.984908E-6 
2890 14.7149 1.003049  6.529281E-6 
2891 14.7531 1.002676  5.734722E-6 
2892 14.6766 1.002330  4.995449E-6 
2893 14.7531 1.002582  5.541509E-6 
2894 14.6384 1.002727  5.856581E-6 
2895 14.6766 1.002552  5.483821E-6 
2896 14.9442 1.002477  5.326674E-6 
2897 15.1735 1.002579  5.549724E-6 
2898 -0.4204 1.001961  4.223899E-6 
2899 -0.3822 1.001439  3.102721E-6 
2900 15.2882 1.001606  3.463688E-6 
2901 15.5175 1.001249  2.696798E-6 
2902 -1.2995 1.000923  1.993230E-6 
2903 -1.2231 1.000414  8.943169E-7 
2904 -1.2231 0.999686 -6.785971E-7 
2905 5.3891 0.999125 -1.893459E-6 
2906 5.3509 0.999490 -1.105557E-6 
2907 -1.8728 1.000135  2.925391E-7 
2908 5.5037 1.000406  8.810027E-7 
2909 -2.1786 1.001030  2.237491E-6 
2910 -2.1021 1.000553  1.200614E-6 
2911 -2.0639 1.000344  7.489257E-7 
2912 -2.0639 1.001012  2.201584E-6 
2913 17.5814 1.001238  2.696988E-6 
2914 -1.7964 1.001068  2.328464E-6 
2915 -1.6817 1.000953  2.078209E-6 
2916 -1.6053 1.000445  9.704421E-7 
2917 17.8872 1.001535  3.351396E-6 
2918 17.9636 1.001379  3.013793E-6 
2919 18.0400 1.001755  3.839618E-6 
2920 -1.6435 1.001436  3.143176E-6 
2921 -1.7199 1.002046  4.480771E-6 
2922 -9.5169 1.002084  4.569233E-6 
2923 -1.7581 1.002037  4.468918E-6 
2924 -1.8728 1.002016  4.424842E-6 
2925 -13.5300 1.002582  5.671217E-6 
2926 -9.4022 1.003112  6.840947E-6 
2927 -9.3640 1.002451  5.391319E-6 
2928 -9.2111 1.001869  4.115496E-6 
2929 -9.3258 1.001613  3.553150E-6 
2930 -9.5551 1.002119  4.672742E-6 
2931 -9.5551 1.002016  4.448795E-6 
2932 -6.0388 1.001767  3.901770E-6 
2933 -6.1535 1.002133  4.712520E-6 
2934 -6.2299 1.002459  5.438454E-6 
2935 -6.0388 1.003153  6.977433E-6 
2936 -6.0006 1.002913  6.451607E-6 
2937 -6.2682 1.002387  5.289099E-6 
2938 -9.2493 1.002112  4.684173E-6 
2939 -6.2299 1.001655  3.671955E-6 
2940 -6.0388 1.002286  5.076819E-6 
2941 -6.1153 1.002100  4.667378E-6 
2942 -6.1535 1.001366  3.037160E-6 
2943 -5.9624 1.001203  2.677255E-6 
2944 -5.9624 1.001155  2.572006E-6 
2945 -6.1153 1.001355  3.020023E-6 
2946 -6.1535 1.001847  4.119959E-6 
2947 -6.2682 1.000612  1.366828E-6 
2948 -6.1153 1.000840  1.876990E-6 
2949 -5.9624 1.000009  1.966372E-8 
2950 -19.5306 1.000553  1.236437E-6 
2951 -5.8095 1.000150  3.360495E-7 
2952 -8.3703 1.000408  9.142647E-7 
2953 -8.6378 1.000079  1.772919E-7 
2954 -8.5232 0.999795 -4.606769E-7 
2955 -8.5996 0.999087 -2.049071E-6 
2956 -5.5037 0.999177 -1.848881E-6 
2957 -14.1798 0.998897 -2.480171E-6 
2958 -14.3327 0.999913 -1.964589E-7 
2959 -14.2944 1.000535  1.204436E-6 
2960 -14.7149 1.000196  4.406839E-7 
2961 -14.7913 1.000460  1.038092E-6 
2962 -14.6002 1.000794  1.791722E-6 
2963 -14.7531 1.001294  2.922454E-6 
2964 -14.7531 1.001594  3.602757E-6 
2965 -14.7149 1.001967  4.447377E-6 
2966 -14.4091 1.002318  5.244557E-6 
2967 -10.5106 1.002142  4.851308E-6 
2968 -10.4724 1.002703  6.126717E-6 
2969 -10.4342 1.002886  6.544628E-6 
2970 -10.4342 1.001936  4.392632E-6 
2971 -10.4724 1.002222  5.045481E-6 
2972 -10.4724 1.003030  6.886714E-6 
2973 -10.3195 1.002991  6.801840E-6 
2974 -10.2431 1.002908  6.617990E-6 
2975 -10.3195 1.002490  5.671721E-6 
2976 -10.2813 1.002439  5.559887E-6 
2977 -10.1666 1.002995  6.830535E-6 
2978 -10.1666 1.002796  6.382639E-6 
2979 -10.3960 1.002939  6.713047E-6 
2980 2.0257 1.002887  6.598891E-6 
2981 -10.4342 1.003467  7.931222E-6 
2982 -10.7017 1.002920  6.684831E-6 
2983 -10.8164 1.002899  6.641655E-6 
2984 -10.6635 1.002912  6.675299E-6 
2985 2.2932 1.003798  8.711671E-6 
2986 -14.1416 1.003028  6.950347E-6 
2987 -14.1416 1.003520  8.087149E-6 
2988 -19.4924 1.003664  8.423275E-6 
2989 -19.4924 1.002955  6.798076E-6 
2990 -14.7149 1.002807  6.462951E-6 
2991 -14.5238 1.002573  5.927157E-6 
2992 -14.5238 1.002797  6.448965E-6 
2993 -14.3709 1.002463  5.681988E-6 
2994 -14.4091 1.001699  3.923274E-6 
2995 -14.3327 1.001254  2.897696E-6 
2996 -14.2180 1.001263  2.920815E-6 
2997 -14.2562 1.002018  4.668856E-6 
2998 -14.2180 1.002027  4.692597E-6 
2999 -14.2944 1.002271  5.263241E-6 
  0 0.4586 1.027311  1.537746E-6 
  1 0.4204 1.119534  6.730980E-6 
  2 0.3440 1.211735  1.192402E-5 
  3 0.2675 1.297896  1.677805E-5 
  4 0.1147 1.343820  1.936683E-5 
  5 -0.0764 1.314870  1.773831E-5 
  6 -0.3440 1.215399  1.213615E-5 
  7 -0.6880 1.102443  5.772697E-6 
  8 -0.9937 0.984247 -8.878055E-7 
  9 -1.2231 0.884278 -6.522900E-6 
 10 -1.4142 0.805664 -1.095585E-5 
 11 -1.7199 0.750489 -1.406875E-5 
 12 -10.6635 0.724051 -1.556215E-5 
 13 -11.0457 0.739851 -1.467375E-5 
 14 -11.1986 0.845045 -8.741910E-6 
 15 -11.2368 0.977131 -1.290392E-6 
 16 -11.2750 1.010773  6.080028E-7 
 17 -11.2368 0.712802 -1.621221E-5 
 18 -11.7337 0.653206 -1.958062E-5 
 19 11.6190 0.789327 -1.189762E-5 
 20 12.9949 0.855038 -8.188539E-6 
 21 14.1798 0.895066 -5.928866E-6 
 22 15.2500 0.918887 -4.584069E-6 
 23 16.7788 0.943209 -3.210322E-6 
 24 18.6516 1.029104  1.645636E-6 
 25 0.1911 1.034026  1.924472E-6 
 26 -0.0382 1.027276  1.543126E-6 
 27 0.1529 1.021230  1.201373E-6 
 28 0.4586 1.019702  1.115235E-6 
 29 0.9937 1.025877  1.465186E-6 
 30 0.4969 1.025293  1.432548E-6 
 31 0.4204 1.022048  1.249137E-6 
 32 -0.1147 1.023869  1.352759E-6 
 33 0.0764 1.022810  1.293145E-6 
 34 -0.5733 1.022572  1.280078E-6 
 35 -0.1147 1.018128  1.028404E-6 
 36 -0.1911 1.016419  9.317628E-7 
 37 0.4969 1.018345  1.041442E-6 
 38 0.2293 1.018321  1.040459E-6 
 39 0.1529 1.021370  1.214025E-6 
 40 -0.0382 1.021221  1.206033E-6 
 41 -0.1911 1.021896  1.244853E-6 
 42 -0.0382 1.026026  1.480200E-6 
 43 -0.3822 1.023974  1.364041E-6 
 44 0.0000 1.023689  1.348366E-6 
 45 0.1147 1.023265  1.324771E-6 
 46 -0.0764 1.023839  1.358026E-6 
 47 0.4586 1.024045  1.370311E-6 
 48 -0.0382 1.020408  1.163536E-6 
 49 0.1911 1.026243  1.496859E-6 
 50 0.3058 1.027920  1.593227E-6 
 51 0.3822 1.030020  1.713819E-6 
 52 0.5733 1.030612  1.748426E-6 
 53 0.5351 1.029239  1.670792E-6 
 54 0.3440 1.029777  1.702335E-6 
 55 0.3440 1.029222  1.671387E-6 
 56 0.2675 1.028815  1.648877E-6 
 57 0.1529 1.022552  1.291112E-6 
 58 0.0382 1.021273  1.218531E-6 
 59 -0.2675 1.022732  1.302714E-6 
 60 0.0000 1.025122  1.440466E-6 
 61 0.0000 1.020113  1.153834E-6 
 62 -0.1147 1.021093  1.210703E-6 
 63 -0.1147 1.021475  1.233238E-6 
 64 0.0764 1.019594  1.125872E-6 
 65 -0.2293 1.019522  1.122323E-6 
 66 -0.3440 1.017679  1.016928E-6 
 67 -0.0382 1.016320  9.392946E-7 
 68 -0.2293 1.018055  1.039744E-6 
 69 -0.4969 1.018799  1.083185E-6 
 70 -0.6115 1.021189  1.221596E-6 
 71 -0.5351 1.021874  1.261816E-6 
 72 -0.7262 1.024478  1.412885E-6 
 73 -0.6115 1.027479  1.587026E-6 
 74 -0.0764 1.027318  1.578665E-6 
 75 -0.1911 1.024789  1.433384E-6 
 76 -0.2675 1.022953  1.328062E-6 
 77 -0.2675 1.018935  1.096284E-6 
 78 -0.3058 1.017288  1.001561E-6 
 79 -0.2675 1.013268  7.691698E-7 
 80 -0.2675 1.008415  4.881489E-7 
 81 -0.1529 1.014672  8.516249E-7 
 82 0.4204 1.016393  9.521283E-7 
 83 0.7644 1.019596  1.138949E-6 
 84 0.7644 1.017629  1.025335E-6 
 85 0.2293 1.019473  1.133347E-6 
 86 0.1147 1.019537  1.137812E-6 
 87 0.1529 1.016167  9.422291E-7 
 88 0.3058 1.015740  9.179606E-7 
 89 0.1529 1.013488  7.871819E-7 
 90 0.0764 1.011765  6.871015E-7 
 91 0.0764 1.013216  7.724359E-7 
 92 0.0382 1.017528  1.025193E-6 
 93 0.2293 1.017226  1.008215E-6 
 94 0.5733 1.017519  1.026121E-6 
 95 0.2675 1.017461  1.023502E-6 
 96 0.5733 1.019565  1.147669E-6 
 97 0.5733 1.021443  1.258820E-6 
 98 0.6497 1.017621  1.035223E-6 
 99 0.3058 1.019781  1.163043E-6 
100 0.1911 1.019051  1.120971E-6 
101 0.0382 1.018372  1.081884E-6 
102 0.0382 1.015408  9.080382E-7 
103 0.0382 1.012389  7.306720E-7 
104 0.0764 1.013212  7.798378E-7 
105 0.1911 1.012943  7.645818E-7 
106 0.1911 1.013374  7.906925E-7 
107 0.1529 1.013393  7.924704E-7 
108 -0.3440 1.013341  7.900423E-7 
109 -0.6497 1.016820  9.968795E-7 
110 -0.3822 1.015268  9.056761E-7 
111 -0.6497 1.020440  1.213467E-6 
112 -0.3058 1.019079  1.133658E-6 
113 -0.3058 1.023125  1.375221E-6 
114 -0.1911 1.027847  1.657489E-6 
115 -0.5733 1.025944  1.545554E-6 
116 -0.6115 1.027157  1.619232E-6 
117 -0.7262 1.025214  1.504728E-6 
118 -0.2675 1.025199  1.505143E-6 
119 -0.3058 1.021768  1.301364E-6 
120 -0.1147 1.018519  1.108100E-6 
121 0.0382 1.020608  1.234272E-6 
122 -0.4204 1.020077  1.203557E-6 
123 0.0000 1.012326  7.395588E-7 
124 -0.0382 1.012821  7.700117E-7 
125 -0.1529 1.009364  5.628911E-7 
126 0.3058 1.012215  7.349872E-7 
127 0.0000 1.009202  5.541927E-7 
128 0.0764 1.012554  7.567841E-7 
129 -0.1911 1.016556  9.989649E-7 
130 -0.6115 1.013342  8.058006E-7 
131 -0.7644 1.017746  1.072838E-6 
132 -0.6497 1.016459  9.960197E-7 
133 -0.3440 1.015059  9.121938E-7 
134 0.0764 1.011277  6.837619E-7 
135 0.1147 1.010348  6.280788E-7 
136 0.0764 1.012858  7.811812E-7 
137 -0.3058 1.008651  5.261283E-7 
138 -0.5733 1.007559  4.601553E-7 
139 -0.6115 1.010183  6.205525E-7 
140 -0.6497 1.012860  7.844709E-7 
141 -0.6497 1.012784  7.806048E-7 
142 -0.2675 1.012406  7.583210E-7 
143 -0.2675 1.013940  8.529949E-7 
144 -0.2675 1.012835  7.861630E-7 
145 -0.1529 1.009746  5.975770E-7 
146 -0.3440 1.008341  5.119614E-7 
147 -0.3822 1.010464  6.429694E-7 
148 -0.3440 1.011005  6.769336E-7 
149 -0.4204 1.012916  7.953512E-7 
150 -0.7644 1.015035  9.268094E-7 
151 -0.6115 1.018605  1.148105E-6 
152 -0.1911 1.018573  1.147358E-6 
153 0.1529 1.018162  1.123191E-6 
154 -0.2675 1.018085  1.119670E-6 
155 -0.3058 1.019480  1.207360E-6 
156 -0.4586 1.018638  1.156477E-6 
157 -0.4969 1.020400  1.267189E-6 
158 0.0764 1.020457  1.272152E-6 
159 0.0382 1.019613  1.221063E-6 
160 0.2293 1.020934  1.304789E-6 
161 0.1529 1.019502  1.216918E-6 
162 0.1911 1.019736  1.232875E-6 
163 0.2675 1.015160  9.481268E-7 
164 0.0382 1.014300  8.953962E-7 
165 0.0000 1.013961  8.751636E-7 
166 0.0382 1.012118  7.604844E-7 
167 -0.0382 1.012747  8.008917E-7 
168 -0.0382 1.012596  7.923694E-7 
169 0.0764 1.012037  7.580839E-7 
170 -0.1147 1.015142  9.547553E-7 
171 -0.1147 1.016554  1.045063E-6 
172 0.2675 1.020688  1.307548E-6 
173 0.1529 1.018928  1.197735E-6 
174 0.0000 1.019282  1.221620E-6 
175 -0.1147 1.022201  1.408260E-6 
176 -0.1147 1.019814  1.258410E-6 
177 -0.4204 1.018655  1.186246E-6 
178 -0.2293 1.014947  9.515990E-7 
179 0.0000 1.017595  1.121550E-6 
180 0.0382 1.018991  1.212027E-6 
181 0.2293 1.020506  1.310352E-6 
182 0.1147 1.023331  1.492759E-6 
183 0.1529 1.023187  1.485358E-6 
184 0.0382 1.022384  1.435717E-6 
185 0.1911 1.022591  1.450854E-6 
186 -0.0764 1.021978  1.413243E-6 
187 -0.1529 1.019642  1.264617E-6 
188 -0.2675 1.016136  1.040207E-6 
189 -0.0382 1.016896  1.090616E-6 
190 -0.1529 1.016844  1.088639E-6 
191 -0.1529 1.017180  1.111825E-6 
192 -0.1911 1.013772  8.924276E-7 
193 -0.3822 1.016787  1.089204E-6 
194 -0.7262 1.017011  1.105145E-6 
195 -0.8408 1.013921  9.055753E-7 
196 -0.9555 1.014588  9.502338E-7 
197 -0.9173 1.010987  7.166123E-7 
198 -0.6880 1.011962  7.812158E-7 
199 -0.5351 1.010915  7.138275E-7 
200 -0.2293 1.011693  7.656800E-7 
201 -0.1911 1.011410  7.481604E-7 
202 -0.1147 1.013794  9.056653E-7 
203 -0.0382 1.017051  1.121019E-6 
204 -0.1911 1.019071  1.255532E-6 
205 -0.3440 1.016047  1.057887E-6 
206 -0.4204 1.017029  1.124147E-6 
207 -0.1911 1.020044  1.325014E-6 
208 0.0000 1.020761  1.374252E-6 
209 0.1147 1.017298  1.146600E-6 
210 0.1911 1.016786  1.114195E-6 
211 0.1147 1.018875  1.254561E-6 
212 0.0382 1.017319  1.152739E-6 
213 0.1147 1.015161  1.010518E-6 
214 0.2675 1.013392  8.938694E-7 
215 0.2675 1.017020  1.137584E-6 
216 0.1529 1.019448  1.301738E-6 
217 -0.0382 1.018591  1.246071E-6 
218 -0.1147 1.016608  1.114792E-6 
219 0.0382 1.017026  1.144405E-6 
220 -0.1529 1.014062  9.465364E-7 
221 -0.0764 1.018197  1.226606E-6 
222 0.4204 1.015661  1.057213E-6 
223 0.0764 1.016463  1.112911E-6 
224 0.0382 1.017044  1.153828E-6 
225 0.0764 1.018864  1.278911E-6 
226 0.0382 1.019963  1.355388E-6 
227 -0.0382 1.011166  7.591682E-7 
228 0.0000 1.012370  8.422734E-7 
229 0.2293 1.012510  8.530887E-7 
230 0.4969 1.015101  1.031267E-6 
231 0.2293 1.014815  1.013189E-6 
232 0.1911 1.017711  1.213051E-6 
233 -0.1147 1.021500  1.474683E-6 
234 -0.3440 1.022100  1.518136E-6 
235 -0.1529 1.023692  1.629901E-6 
236 -0.2293 1.022214  1.530487E-6 
237 0.0000 1.023404  1.614836E-6 
238 -0.0382 1.022056  1.524148E-6 
239 -0.1911 1.020926  1.448234E-6 
240 -0.3058 1.023772  1.647650E-6 
241 -0.0764 1.019604  1.360796E-6 
242 0.1529 1.017170  1.193657E-6 
243 -0.1911 1.017439  1.214179E-6 
244 -0.6880 1.015761  1.099036E-6 
245 -0.5351 1.014976  1.045887E-6 
246 -0.1147 1.010775  7.536563E-7 
247 0.2293 1.016550  1.159341E-6 
248 0.4969 1.019422  1.362566E-6 
249 0.0764 1.020673  1.452564E-6 
250 0.0764 1.022510  1.584041E-6 
251 0.1529 1.023507  1.656791E-6 
252 -0.1529 1.025159  1.775971E-6 
253 0.0000 1.022836  1.614456E-6 
254 -0.2293 1.024349  1.724112E-6 
255 -0.3822 1.021189  1.502711E-6 
256 -0.3822 1.018973  1.347622E-6 
257 0.4969 1.021666  1.541357E-6 
258 0.4204 1.019889  1.417124E-6 
259 -0.1529 1.018879  1.347272E-6 
260 -0.1529 1.018830  1.345915E-6 
261 0.0382 1.019273  1.379770E-6 
262 -0.0382 1.019670  1.410393E-6 
263 -0.0764 1.016718  1.200609E-6 
264 -0.3440 1.016149  1.161589E-6 
265 -0.5351 1.014015  1.009679E-6 
266 -0.5351 1.014850  1.071531E-6 
267 -0.5351 1.014489  1.047176E-6 
268 0.1529 1.016835  1.218656E-6 
269 -0.0382 1.017078  1.238300E-6 
270 0.0000 1.021054  1.528980E-6 
271 -0.1147 1.024348  1.771064E-6 
272 -0.3440 1.020202  1.471894E-6 
273 -0.0382 1.019154  1.397802E-6 
274 -0.0382 1.019307  1.411230E-6 
275 -0.2293 1.017122  1.253543E-6 
276 0.4204 1.013476  9.881981E-7 
277 0.0382 1.010993  8.074568E-7 
278 -0.2293 1.009563  7.035768E-7 
279 -0.3440 1.012084  8.904643E-7 
280 -0.4204 1.013523  9.981356E-7 
281 -0.3822 1.013976  1.033290E-6 
282 -0.4586 1.013621  1.008709E-6 
283 -0.5733 1.014821  1.099411E-6 
284 -0.5733 1.017093  1.270043E-6 
285 -0.5733 1.014552  1.082975E-6 
286 -0.1147 1.012288  9.160601E-7 
287 -0.3058 1.009247  6.904943E-7 
288 -0.1529 1.013817  1.033470E-6 
289 -0.0764 1.014044  1.052182E-6 
290 0.0764 1.013778  1.033942E-6 
291 -0.2293 1.013097  9.845154E-7 
292 -0.1147 1.008548  6.436082E-7 
293 0.3822 1.011174  8.427928E-7 
294 0.3058 1.006651  5.025117E-7 
295 -0.0764 1.003631  2.747692E-7 
296 -0.1147 1.005959  4.517536E-7 
297 0.0000 1.011872  9.014610E-7 
298 0.3058 1.013562  1.031536E-6 
299 0.6497 1.014114  1.075342E-6 
300 0.4969 1.013556  1.034559E-6 
301 0.6115 1.014037  1.073151E-6 
302 0.3822 1.014406  1.103206E-6 
303 0.0764 1.010308  7.907352E-7 
304 -0.1147 1.011756  9.033812E-7 
305 0.1147 1.013919  1.071345E-6 
306 0.1147 1.013824  1.065898E-6 
307 0.0382 1.012343  9.533119E-7 
308 -0.1911 1.010519  8.138849E-7 
309 -0.4586 1.009695  7.514001E-7 
310 -0.1147 1.010897  8.460250E-7 
311 -0.1147 1.011356  8.831530E-7 
312 0.2293 1.014842  1.156271E-6 
313 0.1147 1.016685  1.302107E-6 
314 -0.0764 1.013897  1.086411E-6 
315 -0.2675 1.015645  1.225171E-6 
316 -0.0764 1.018319  1.437094E-6 
317 0.0382 1.018249  1.434093E-6 
318 0.6115 1.013166  1.036419E-6 
319 0.3058 1.015058  1.187471E-6 
320 0.3822 1.016727  1.321364E-6 
321 0.2675 1.012355  9.777002E-7 
322 0.2675 1.010650  8.442847E-7 
323 0.4204 1.008841  7.021262E-7 
324 0.3822 1.012445  9.900613E-7 
325 0.3058 1.008558  6.820264E-7 
326 0.4969 1.009575  7.644348E-7 
327 0.4969 1.011521  9.214210E-7 
328 0.3058 1.009935  7.959776E-7 
329 0.4586 1.009323  7.482520E-7 
330 0.4204 1.006197  4.982453E-7 
331 0.0382 1.006371  5.131741E-7 
332 0.3058 1.003668  2.959602E-7 
333 0.1529 1.005632  4.552705E-7 
334 -0.0764 1.003837  3.106647E-7 
335 0.1147 1.004774  3.872708E-7 
336 0.5351 1.005887  4.784130E-7 
337 0.6880 1.008379  6.821598E-7 
338 0.5733 1.008524  6.951659E-7 
339 0.4204 1.006540  5.342989E-7 
340 0.3058 1.008689  7.111987E-7 
341 0.4586 1.011367  9.319969E-7 
342 0.6115 1.012544  1.030386E-6 
343 0.4204 1.012649  1.040905E-6 
344 -0.2293 1.016744  1.380365E-6 
345 -0.1147 1.017496  1.444929E-6 
346 0.4204 1.017644  1.459793E-6 
347 0.5733 1.015122  1.253397E-6 
348 0.2293 1.015333  1.273170E-6 
349 0.0382 1.017373  1.445191E-6 
350 -0.1911 1.014459  1.205000E-6 
351 -0.0382 1.016101  1.344224E-6 
352 0.1911 1.015082  1.261428E-6 
353 0.4969 1.013415  1.124043E-6 
354 0.0382 1.016510  1.385921E-6 
355 0.2293 1.018572  1.561833E-6 
356 0.0000 1.020437  1.721811E-6 
357 0.1529 1.018464  1.558471E-6 
358 0.4969 1.017770  1.502597E-6 
359 0.7644 1.015609  1.322342E-6 
360 1.2613 1.009354  7.939064E-7 
361 1.2995 1.004206  3.576368E-7 
362 1.0320 1.004040  3.441173E-7 
363 0.5351 1.004348  3.710788E-7 
364 -0.0382 1.007459  6.376680E-7 
365 0.2293 1.008828  7.561524E-7 
366 0.0382 1.010462  8.977082E-7 
367 0.5733 1.012245  1.052720E-6 
368 0.6497 1.010017  8.627707E-7 
369 0.3058 1.011654  1.005540E-6 
370 0.5351 1.007526  6.505991E-7 
371 0.4586 1.008861  7.674376E-7 
372 0.6497 1.011460  9.943371E-7 
373 0.4969 1.011769  1.023082E-6 
374 0.3440 1.011044  9.618218E-7 
375 0.0764 1.009703  8.466231E-7 
376 0.1147 1.011467  1.002346E-6 
377 0.0000 1.008981  7.865252E-7 
378 -0.0764 1.008730  7.659219E-7 
379 0.1911 1.003435  3.019338E-7 
380 -0.3058 1.008705  7.666309E-7 
381 -0.1529 1.010415  9.188685E-7 
382 -0.1529 1.011191  9.892311E-7 
383 0.3058 1.015885  1.406753E-6 
384 0.2675 1.014398  1.277434E-6 
385 0.3822 1.016693  1.483890E-6 
386 0.2675 1.011257  1.002536E-6 
387 -0.2293 1.005377  4.797236E-7 
388 0.1911 1.004291  3.835369E-7 
389 0.2675 1.000458  4.105361E-8 
390 0.3058 1.001173  1.052775E-7 
391 0.4969 1.003969  3.568296E-7 
392 0.4586 1.007307  6.581214E-7 
393 -0.0764 1.009147  8.253699E-7 
394 0.0000 1.011782  1.065199E-6 
395 0.0000 1.011635  1.053839E-6 
396 0.0000 1.007586  6.883600E-7 
397 0.1147 1.006759  6.144976E-7 
398 -0.1147 1.005345  4.868424E-7 
399 -0.3440 1.008552  7.804476E-7 
400 -0.7644 1.005247  4.797797E-7 
401 -0.6497 1.006291  5.762824E-7 
402 -0.0764 1.011454  1.051215E-6 
403 -0.0764 1.010363  9.529494E-7 
404 0.1911 1.010364  9.548413E-7 
405 0.8408 1.009981  9.212621E-7 
406 0.7262 1.008958  8.284537E-7 
407 0.2675 1.009416  8.724314E-7 
408 0.0764 1.006468  6.004621E-7 
409 -0.4586 1.004780  4.445882E-7 
410 -0.8026 1.008679  8.087945E-7 
411 -0.5351 1.007615  7.109114E-7 
412 -0.0764 1.006746  6.309949E-7 
413 -0.1529 1.007460  6.991251E-7 
414 0.5351 1.008816  8.277521E-7 
415 0.6880 1.011856  1.115376E-6 
416 0.7262 1.005859  5.522554E-7 
417 1.2995 1.005662  5.347056E-7 
418 1.6817 1.004449  4.209725E-7 
419 15.0971 1.002017  1.912427E-7 
420 15.6704 1.002429  2.307373E-7 
421 0.3440 0.998840 -1.103838E-7 
422 0.1529 0.998595 -1.339523E-7 
423 0.1147 0.993672 -6.045293E-7 
424 -0.3822 0.993708 -6.021985E-7 
425 -0.6115 0.992264 -7.418566E-7 
426 18.3076 0.988926 -1.063984E-6 
427 -11.1221 0.987852 -1.169407E-6 
428 12.0012 0.984859 -1.460324E-6 
429 1.4906 0.987934 -1.165985E-6 
430 15.9379 0.986921 -1.266217E-6 
431 12.2305 0.989579 -1.010856E-6 
432 14.6384 0.989259 -1.043866E-6 
433 14.2944 0.992529 -7.274944E-7 
434 14.6002 0.995232 -4.651808E-7 
435 14.0651 0.995966 -3.942833E-7 
436 12.8038 0.996548 -3.380904E-7 
437 11.3515 1.000613  6.018257E-8 
438 9.5551 1.001117  1.098109E-7 
439 18.6516 0.999960 -3.920132E-9 
440 -18.8045 0.999698 -2.976210E-8 
441 19.4160 1.000280  2.771725E-8 
442 -0.6880 1.004009  3.971637E-7 
443 0.8026 0.997878 -2.106409E-7 
444 0.7644 0.998679 -1.313826E-7 
445 -10.5871 1.000035  3.519327E-9 
446 -10.3960 1.003169  3.164292E-7 
447 -18.8427 1.001527  1.527219E-7 
448 19.3013 0.998310 -1.694428E-7 
449 18.4605 1.003007  3.019492E-7 
450 18.3840 1.002600  2.616440E-7 
451 17.9254 1.002490  2.510825E-7 
452 17.3139 1.003561  3.597043E-7 
453 17.3139 1.002773  2.806828E-7 
454 16.7023 1.005867  5.949184E-7 
455 15.5939 1.000881  8.949609E-8 
456 16.0908 0.999690 -3.158852E-8 
457 17.3903 0.997952 -2.089211E-7 
458 17.4285 0.995833 -4.258313E-7 
459 18.6516 0.999183 -8.368166E-8 
460 18.4987 0.993927 -6.230359E-7 
461 18.8809 0.995264 -4.868565E-7 
462 19.2631 0.998187 -1.866874E-7 
463 18.4222 0.998566 -1.479331E-7 
464 -8.8289 0.996289 -3.836497E-7 
465 -9.3258 0.998201 -1.863278E-7 
466 -8.7525 0.999696 -3.156424E-8 
467 -0.1529 1.001628  1.692890E-7 
468 -0.1529 1.001858  1.936018E-7 
469 -0.1529 0.998389 -1.681650E-7 
470 0.4204 0.997825 -2.275118E-7 
471 0.3822 0.992548 -7.810826E-7 
472 0.4969 0.994218 -6.072251E-7 
473 11.3897 0.993033 -7.330696E-7 
474 12.3070 0.992245 -8.175565E-7 
475 14.0651 0.996394 -3.809315E-7 
476 15.9761 0.998058 -2.055104E-7 
477 16.7023 0.996368 -3.851611E-7 
478 18.7280 0.995076 -5.231347E-7 
479 19.1484 0.996258 -3.983966E-7 
480 19.1867 0.998030 -2.100961E-7 
481 18.1165 0.996851 -3.365817E-7 
482 18.1547 0.994979 -5.376117E-7 
483 16.1290 0.993478 -6.997246E-7 
484 16.1672 0.997804 -2.360900E-7 
485 15.3646 0.996233 -4.057268E-7 
486 13.9505 0.992233 -8.382355E-7 
487 14.5620 0.992424 -8.192314E-7 
488 4.2042 0.993764 -6.756192E-7 
489 14.2180 0.996819 -3.453511E-7 
490 15.1735 0.994634 -5.836470E-7 
491 -9.1729 0.990044 -1.085037E-6 
492 -9.1729 0.989792 -1.114694E-6 
493 4.1660 0.993127 -7.519604E-7 
494 -10.6253 0.993719 -6.885814E-7 
495 6.8797 0.996889 -3.417017E-7 
496 2.9430 0.995545 -4.902341E-7 
497 10.2049 0.998737 -1.392966E-7 
498 10.1666 1.000558  6.161492E-8 
499 8.8671 0.998376 -1.797934E-7 
500 0.9555 0.999117 -9.799061E-8 
501 0.3058 0.997436 -2.849506E-7 
502 0.6880 0.999768 -2.588784E-8 
503 0.6497 1.002264  2.525434E-7 
504 -0.6115 1.003759  4.201798E-7 
505 16.6641 1.001800  2.016605E-7 
506 1.7199 1.002656  2.980715E-7 
507 1.9110 1.003612  4.061321E-7 
508 2.4843 1.001471  1.657752E-7 
509 2.4079 0.996651 -3.780078E-7 
510 1.7581 0.995680 -4.885753E-7 
511 16.0144 0.995142 -5.505865E-7 
512 16.7023 0.990194 -1.113517E-6 
513 16.9317 0.990432 -1.088558E-6 
514 16.2819 0.991223 -1.000562E-6 
515 14.4473 0.993938 -6.924073E-7 
516 15.7086 0.996460 -4.050959E-7 
517 -0.8026 0.995945 -4.649778E-7 
518 -0.1911 0.999817 -2.103355E-8 
519 -0.1147 0.997707 -2.639560E-7 
520 1.4524 0.995054 -5.704953E-7 
521 0.4204 0.996892 -3.591841E-7 
522 0.4586 0.991670 -9.645521E-7 
523 0.1529 0.990733 -1.075135E-6 
524 0.6115 0.988592 -1.326169E-6 
525 -0.7644 0.988613 -1.326321E-6 
526 0.6115 0.990740 -1.080729E-6 
527 1.1466 0.986449 -1.584594E-6 
528 1.4524 0.986924 -1.532050E-6 
529 1.5670 0.990299 -1.138810E-6 
530 2.5225 0.991953 -9.465857E-7 
531 1.4906 0.991595 -9.905684E-7 
532 16.1672 0.992532 -8.818871E-7 
533 16.7023 0.994614 -6.372882E-7 
534 17.6196 0.996768 -3.831869E-7 
535 1.9110 0.997571 -2.885163E-7 
536 1.8346 0.997647 -2.800404E-7 
537 1.4524 0.999322 -8.087051E-8 
538 2.7901 0.998247 -2.094034E-7 
539 2.6372 0.994456 -6.636760E-7 
540 -9.8609 0.992054 -9.530726E-7 
541 -9.5933 0.989139 -1.305383E-6 
542 17.6961 0.990138 -1.187547E-6 
543 17.7343 0.987806 -1.471313E-6 
544 18.6133 0.990678 -1.126922E-6 
545 18.4987 0.997645 -2.852187E-7 
546 17.3139 1.001075  1.304485E-7 
547 -12.7274 1.000989  1.202175E-7 
548 -19.5306 0.999552 -5.461128E-8 
549 19.5306 0.999576 -5.171846E-8 
550 18.2694 0.996732 -3.997234E-7 
551 17.9636 0.994842 -6.322083E-7 
552 1.7581 0.990811 -1.128364E-6 
553 1.9875 0.991843 -1.003642E-6 
554 1.2995 0.991330 -1.068890E-6 
555 1.2613 0.992124 -9.728227E-7 
556 0.8026 0.992310 -9.517565E-7 
557 0.8791 0.991078 -1.106410E-6 
558 0.5733 0.992802 -8.943024E-7 
559 -10.5106 0.991819 -1.018547E-6 
560 17.3139 0.992174 -9.762086E-7 
561 2.9430 0.993329 -8.337720E-7 
562 0.6497 0.993846 -7.705893E-7 
563 0.4586 0.992823 -9.004893E-7 
564 0.5733 0.992518 -9.406650E-7 
565 -0.7644 0.991478 -1.073427E-6 
566 9.2876 0.990273 -1.227668E-6 
567 7.9116 0.989218 -1.363401E-6 
568 6.3828 0.987542 -1.578418E-6 
569 3.8220 0.987495 -1.587559E-6 
570 3.6309 0.984522 -1.968807E-6 
571 7.3001 0.985257 -1.878981E-6 
572 6.7268 0.989242 -1.373696E-6 
573 17.5814 0.990954 -1.157408E-6 
574 16.4730 0.993590 -8.216918E-7 
575 16.9699 0.995353 -5.968441E-7 
576 13.3771 1.000387  4.984933E-8 
577 -4.2042 1.000257  3.319397E-8 
578 -3.9367 0.996319 -4.755473E-7 
579 -5.3126 0.995098 -6.345387E-7 
580 -18.2311 0.994538 -7.085075E-7 
581 -10.4724 0.991903 -1.052280E-6 
582 19.2249 0.989676 -1.344295E-6 
583 19.3395 0.993823 -8.058800E-7 
584 -13.5300 0.996971 -3.958955E-7 
585 -13.4536 0.994955 -6.607442E-7 
586 -19.4542 0.996504 -4.588330E-7 
587 4.8922 1.000300  3.946954E-8 
588 4.6247 1.001122  1.478351E-7 
589 3.0194 0.997392 -3.442324E-7 
590 3.1723 0.996220 -4.998862E-7 
591 2.8283 1.000472  6.252870E-8 
592 17.5814 0.999722 -3.694582E-8 
593 18.2311 0.998990 -1.343422E-7 
594 17.4285 0.999691 -4.124521E-8 
595 19.4542 1.000325  4.335772E-8 
596 18.4222 0.998711 -1.724725E-7 
597 -11.1221 0.998537 -1.961800E-7 
598 9.5169 0.996879 -4.192024E-7 
599 8.2174 0.995155 -6.520695E-7 
