Filename:	Stare_91_20221214_11.hpl
System ID:	91
Number of gates:	250
Range gate length (m):	48.0
Gate length (pts):	16
Pulses/ray:	20000
No. of rays in file:	1
Scan type:	Stare
Focus range:	65535
Start time:	20221214 11:00:18.99
Resolution (m/s):	0.0382
Altitude of measurement (center of gate) = (range gate + 0.5) * Gate length
Data line 1: Decimal time (hours)  Azimuth (degrees)  Elevation (degrees) Pitch (degrees) Roll (degrees)
f9.6,1x,f6.2,1x,f6.2
Data line 2: Range Gate  Doppler (m/s)  Intensity (SNR + 1)  Beta (m-1 sr-1)
i3,1x,f6.4,1x,f8.6,1x,e12.6 - repeat for no. gates
****
11.00499444   0.00  90.00 -0.01 -0.20
  0 2.5990 1.027855  1.569249E-6
  1 -0.0764 1.014089  7.960566E-7
  2 -1.0702 1.005351  3.037474E-7
  3 -0.5351 1.005545  3.168804E-7
  4 -0.8026 1.005105  2.941327E-7
  5 -0.3440 1.006821  3.970078E-7
  6 -0.5733 1.005150  3.032375E-7
  7 -0.6497 1.004496  2.682815E-7
  8 -0.1529 1.006411  3.883684E-7
  9 -0.0382 1.007208  4.438335E-7
 10 -0.4204 1.007469  4.681791E-7
 11 -0.4586 1.006809  4.351206E-7
 12 -0.7262 1.013368  8.719376E-7
 13 -0.4586 1.015300  1.019819E-6
 14 -0.2675 1.006053  4.127254E-7
 15 -0.3058 1.007430  5.188836E-7
 16 -0.0764 1.005302  3.796004E-7
 17 0.1529 1.008073  5.929449E-7
 18 -0.4586 1.002283  1.722022E-7
 19 -14.2562 1.002100  1.627822E-7
 20 -0.1147 1.001018  8.113456E-8
 21 -0.3058 1.002939  2.409677E-7
 22 -2.2932 0.999341 -5.565098E-8
 23 -13.1096 1.002767  2.405186E-7
 24 -10.7399 1.004662  4.175675E-7
 25 -0.5733 1.001213  1.119459E-7
 26 -0.5351 1.020926  1.991344E-6
 27 -0.6880 1.025836  2.535278E-6
 28 -0.6880 1.002476  2.506463E-7
 29 -14.0651 1.002985  3.116613E-7
 30 -13.2625 1.000580  6.242244E-8
 31 13.1860 0.999919 -9.029642E-9
 32 -6.0770 1.002008  2.302856E-7
 33 5.9242 1.000105  1.243181E-8
 34 -4.9687 1.000509  6.214578E-8
 35 -0.8791 1.001773  2.233590E-7
 36 -3.4016 1.001026  1.333701E-7
 37 -15.3264 0.997318 -3.595769E-7
 38 -7.7587 1.000645  8.913616E-8
 39 -11.8866 0.996331 -5.233379E-7
 40 -1.9875 1.000177  2.608528E-8
 41 -1.2613 1.001570  2.381801E-7
 42 -15.0971 0.999987 -2.042523E-9
 43 13.3389 0.998565 -2.313334E-7
 44 5.5420 0.999616 -6.386527E-8
 45 3.8985 0.998298 -2.912738E-7
 46 -12.5363 1.000526  9.267301E-8
 47 1.6817 1.001252  2.273679E-7
 48 -8.6378 1.001386  2.592493E-7
 49 7.9116 0.998862 -2.191064E-7
 50 -15.4028 0.999898 -2.030299E-8
 51 -14.0269 1.001868  3.809886E-7
 52 -13.9887 0.997909 -4.388552E-7
 53 -14.6766 0.999135 -1.867509E-7
 54 0.0000 1.004486  9.961410E-7
 55 13.7594 0.998087 -4.367550E-7
 56 -15.3646 0.998529 -3.453575E-7
 57 -0.0764 0.999740 -6.281644E-8
 58 -13.9122 1.001695  4.200627E-7
 59 -12.6127 1.001040  2.648995E-7
 60 2.7519 0.999823 -4.617394E-8
 61 -9.3258 1.004952  1.329476E-6
 62 -15.9379 0.995325 -1.288442E-6
 63 -13.6447 1.000833  2.355180E-7
 64 17.3139 1.002977  8.639982E-7
 65 14.4091 1.002198  6.544409E-7
 66 10.1666 1.002005  6.124665E-7
 67 -0.6880 1.039011  1.221705E-5
 68 -0.5351 1.328686  1.055281E-4
 69 -0.6880 1.184771  6.080463E-5
 70 -0.5733 1.469246  1.582436E-4
 71 -0.4969 1.054764  1.892150E-5
 72 -0.3058 1.007833  2.772195E-6
 73 -0.6497 1.009391  3.403665E-6
 74 -1.0320 1.003827  1.420435E-6
 75 -0.6497 1.011229  4.266042E-6
 76 -0.4969 1.197507  7.679931E-5
 77 -0.5733 1.119357  4.749247E-5
 78 -0.5351 1.271571  1.105553E-4
 79 0.0000 1.006694  2.787585E-6
 80 -8.4467 0.999395 -2.577419E-7
 81 1.0702 1.005048  2.198422E-6
 82 4.3571 0.996081 -1.744541E-6
 83 0.0382 1.012762  5.807287E-6
 84 2.1403 1.000888  4.129638E-7
 85 15.6704 0.999024 -4.638734E-7
 86 6.9561 0.996710 -1.596944E-6
 87 17.4285 1.004174  2.069332E-6
 88 -7.5676 1.001654  8.375377E-7
 89 -17.0463 1.002737  1.414886E-6
 90 -14.5620 1.002734  1.443040E-6
 91 1.1084 0.998183 -9.790130E-7
 92 -0.8026 1.003425  1.883424E-6
 93 3.8220 1.001880  1.054742E-6
 94 -14.9060 1.003149  1.802499E-6
 95 -6.3828 1.005549  3.240275E-6
 96 3.4398 0.999963 -2.187169E-8
 97 -15.2117 0.997654 -1.424517E-6
 98 -15.5175 1.000346  2.143318E-7
 99 -14.4473 1.000399  2.520428E-7
100 11.1604 0.998430 -1.010385E-6
101 -4.7011 1.001259  8.254116E-7
102 -17.0463 1.004012  2.680917E-6
103 -8.4085 0.998778 -8.322385E-7
104 4.8158 1.000316  2.189920E-7
105 5.8859 1.000876  6.186148E-7
106 -16.0144 1.002265  1.630087E-6
107 15.5557 0.997275 -1.996645E-6
108 -14.9824 1.001350  1.007049E-6
109 16.2437 0.999384 -4.678784E-7
110 -12.3834 0.998723 -9.871322E-7
111 -12.0394 0.998512 -1.170726E-6
112 -14.2180 0.999274 -5.816245E-7
113 3.7456 1.001711  1.394708E-6
114 -9.8609 0.996493 -2.907819E-6
115 -16.7023 0.999976 -1.995544E-8
116 -9.4404 0.998125 -1.608716E-6
117 -16.4348 1.000025  2.221949E-8
118 4.1660 1.001808  1.604425E-6
119 8.0645 0.999895 -9.474193E-8
120 -4.9304 1.005014  4.600564E-6
121 -6.0770 1.001574  1.468667E-6
122 4.6629 1.000274  2.601446E-7
123 7.8352 1.003745  3.609018E-6
124 4.5865 1.000572  5.601605E-7
125 -6.3446 0.999139 -8.567624E-7
126 5.6948 0.999797 -2.057653E-7
127 -18.3458 1.000803  8.248000E-7
128 -4.7011 0.999996 -3.689442E-9
129 -5.1598 0.998979 -1.083047E-6
130 -1.2231 1.002675  2.881188E-6
131 -6.7268 0.999188 -8.881170E-7
132 -8.8289 0.999555 -4.937833E-7
133 -14.4855 1.002675  3.016712E-6
134 16.9699 0.998915 -1.241925E-6
135 5.6566 1.000406  4.718548E-7
136 -11.3515 1.000751  8.855395E-7
137 -14.5238 1.000143  1.708702E-7
138 5.8477 1.002706  3.288702E-6
139 -15.8997 0.997268 -3.369618E-6
140 15.2117 1.003028  3.790070E-6
141 -2.9812 1.001380  1.752631E-6
142 2.4461 1.001512  1.947982E-6
143 -14.1798 0.997807 -2.866651E-6
144 1.2995 1.001070  1.419048E-6
145 15.6704 1.000466  6.262691E-7
146 -11.9630 1.002081  2.838226E-6
147 -16.3201 1.002652  3.668959E-6
148 -14.7913 0.996345 -5.128441E-6
149 -7.4912 1.000347  4.933634E-7
150 -12.1923 1.000237  3.422879E-7
151 -11.5426 0.999552 -6.558507E-7
152 -4.2807 0.996672 -4.934451E-6
153 -14.3709 0.999484 -7.758434E-7
154 -13.9122 0.999174 -1.258711E-6
155 -14.7531 0.997561 -3.766110E-6
156 16.2055 1.000922  1.442417E-6
157 -17.9636 0.998330 -2.647492E-6
158 -13.3389 1.000674  1.082314E-6
159 -12.7656 0.998883 -1.817918E-6
160 7.4148 1.003415  5.633628E-6
161 -13.4154 1.001782  2.977796E-6
162 -8.5232 0.998212 -3.027310E-6
163 -13.4154 0.999677 -5.537968E-7
164 7.7970 1.000891  1.547926E-6
165 3.7838 1.001569  2.760774E-6
166 -2.3314 1.000045  7.980941E-8
167 -13.8358 0.999696 -5.483389E-7
168 0.6880 1.000711  1.299564E-6
169 -0.7644 1.005206  9.632134E-6
170 -13.4154 0.999265 -1.377075E-6
171 -15.0588 1.002119  4.019206E-6
172 -15.0206 1.001728  3.318825E-6
173 -13.9122 1.001657  3.221468E-6
174 -13.6065 0.996412 -7.060829E-6
175 -2.9048 1.001515  3.017001E-6
176 -13.9887 0.999160 -1.693772E-6
177 -15.5557 0.998973 -2.095276E-6
178 -9.7080 0.995428 -9.441368E-6
179 -15.5175 1.002954  6.172402E-6
180 -15.3264 1.001734  3.666149E-6
181 -14.2562 0.998249 -3.746246E-6
182 5.6566 1.001880  4.069958E-6
183 6.4975 0.999083 -2.008740E-6
184 -6.1917 1.001056  2.340642E-6
185 0.4204 0.999896 -2.341757E-7
186 -12.9949 1.002533  5.744246E-6
187 4.7011 0.995802 -9.630314E-6
188 15.0206 0.998704 -3.008120E-6
189 6.3446 0.998176 -4.281430E-6
190 -13.3007 1.001907  4.525835E-6
191 -15.4028 1.000061  1.468062E-7
192 -14.7149 0.998387 -3.914994E-6
193 6.1917 0.997630 -5.818379E-6
194 -8.9818 1.000594  1.474419E-6
195 5.3126 1.001594  3.999842E-6
196 -13.1096 0.996836 -8.028588E-6
197 13.7211 1.000176  4.512028E-7
198 5.0069 1.002943  7.633120E-6
199 17.3139 0.998426 -4.126712E-6
200 -17.8872 0.995916 -1.082793E-5
201 -8.2174 0.998453 -4.146673E-6
202 11.1604 0.999258 -2.009520E-6
203 4.1278 1.002515  6.885937E-6
204 -16.4348 1.003877  1.072975E-5
205 -11.0839 1.000877  2.452651E-6
206 15.9761 1.001424  4.024247E-6
207 1.1466 0.999728 -7.781225E-7
208 2.4079 1.000157  4.543233E-7
209 17.4667 1.004525  1.319779E-5
210 -12.5745 0.998744 -3.702086E-6
211 -15.6704 1.000469  1.397039E-6
212 14.9824 1.001641  4.938814E-6
213 -1.6817 0.997810 -6.655925E-6
214 -3.7456 1.001665  5.114931E-6
215 13.8358 1.001931  5.992142E-6
216 16.0908 0.998432 -4.914106E-6
217 6.6121 1.002245  7.108865E-6
218 2.7901 1.000627  2.005503E-6
219 -14.9824 0.997175 -9.126307E-6
220 15.5175 1.001675  5.463959E-6
221 17.9636 1.002484  8.185626E-6
222 17.9254 1.001494  4.971568E-6
223 -14.9824 0.995613 -1.474705E-5
224 -13.4918 0.998797 -4.083753E-6
225 -11.7719 0.999880 -4.112570E-7
226 -11.5808 0.997083 -1.009803E-5
227 3.5545 0.998451 -5.413690E-6
228 -14.0269 1.003009  1.062228E-5
229 -15.2117 0.998089 -6.809944E-6
230 -15.2500 0.996586 -1.228474E-5
231 -13.1096 0.999961 -1.423358E-7
232 5.0833 1.001406  5.157137E-6
233 -5.8477 0.999270 -2.705040E-6
234 12.6892 0.998710 -4.822785E-6
235 -6.1535 0.998341 -6.261439E-6
236 11.7337 1.004104  1.563278E-5
237 -15.9761 1.000724  2.785433E-6
238 4.6247 0.999854 -5.673261E-7
239 5.5037 1.002438  9.552782E-6
240 -13.9122 1.001369  5.415247E-6
241 -4.5865 1.003758  1.500082E-5
242 -16.5877 0.998469 -6.167020E-6
243 -0.1911 0.997812 -8.893075E-6
244 -15.3646 0.998715 -5.271257E-6
245 -15.5557 0.999359 -2.653527E-6
246 18.8045 0.998925 -4.489876E-6
247 -8.5996 1.001587  6.692821E-6
248 17.3903 0.999602 -1.695393E-6
249 5.6566 1.000145  6.209786E-7
11.00555556   0.00  90.00 -0.01 -0.10
  0 2.5608 1.030788  1.734436E-6 
  1 -1.0320 1.007129  4.027732E-7 
  2 -0.8791 1.005681  3.225001E-7 
  3 -0.8408 1.002047  1.169863E-7 
  4 -0.2675 1.002879  1.658792E-7 
  5 -0.1911 1.006464  3.761764E-7 
  6 0.4204 1.007887  4.644187E-7 
  7 -0.5733 1.010664  6.364011E-7 
  8 -0.8408 1.007571  4.586265E-7 
  9 -0.6880 1.011783  7.255609E-7 
 10 -0.5351 1.008585  5.381839E-7 
 11 -0.7644 1.014581  9.317451E-7 
 12 -0.4204 1.013059  8.517405E-7 
 13 -0.5733 1.015782  1.051946E-6 
 14 -0.3822 1.012104  8.254069E-7 
 15 -0.4969 1.009886  6.903905E-7 
 16 -0.3822 1.006201  4.438984E-7 
 17 -0.2293 1.006262  4.599288E-7 
 18 -0.7262 1.004351  3.281759E-7 
 19 5.1980 1.000995  7.713018E-8 
 20 -0.0382 0.999981 -1.513908E-9 
 21 -19.0720 1.000334  2.739204E-8 
 22 14.6384 1.001258  1.061665E-7 
 23 -0.8408 1.004421  3.842730E-7 
 24 -0.9937 1.003404  3.048786E-7 
 25 -0.8791 1.019574  1.806788E-6 
 26 -0.7262 1.114267  1.087368E-5 
 27 -0.7644 1.069311  6.801398E-6 
 28 -9.6698 1.001491  1.509292E-7 
 29 18.8809 1.001812  1.891913E-7 
 30 -4.9687 1.001245  1.341341E-7 
 31 -9.2876 1.003465  3.851184E-7 
 32 13.7211 1.001408  1.614883E-7 
 33 8.1027 0.998676 -1.566175E-7 
 34 18.0783 1.000847  1.033564E-7 
 35 14.4473 1.001822  2.294960E-7 
 36 17.2756 1.003708  4.818469E-7 
 37 12.7656 1.001902  2.549349E-7 
 38 12.5745 1.001388  1.919593E-7 
 39 14.9060 1.000151  2.148316E-8 
 40 14.4091 0.996807 -4.697222E-7 
 41 14.5620 1.000994  1.507755E-7 
 42 -7.9116 1.003149  4.923911E-7 
 43 17.5814 1.001409  2.271151E-7 
 44 -8.2938 1.004246  7.053772E-7 
 45 13.5683 0.998625 -2.354333E-7 
 46 14.9442 1.001759  3.101870E-7 
 47 -9.0965 0.999129 -1.581747E-7 
 48 -4.9687 0.996958 -5.689452E-7 
 49 3.2487 0.996212 -7.295232E-7 
 50 16.5112 1.001873  3.712607E-7 
 51 5.2744 1.001329  2.710672E-7 
 52 -15.6322 1.003028  6.355305E-7 
 53 17.8107 1.003473  7.498177E-7 
 54 -9.3258 1.002528  5.613222E-7 
 55 -18.3840 0.999647 -8.051081E-8 
 56 -12.9567 0.997510 -5.844311E-7 
 57 16.1290 1.001480  3.568857E-7 
 58 16.7788 1.002227  5.519595E-7 
 59 11.9248 0.998040 -4.990959E-7 
 60 -9.1729 1.002757  7.208384E-7 
 61 15.5939 1.001133  3.042197E-7 
 62 15.5557 0.996860 -8.653511E-7 
 63 -7.6441 1.003461  9.790950E-7 
 64 -11.1604 1.003343  9.703872E-7 
 65 -6.3446 1.000009  2.745877E-9 
 66 14.0269 0.999607 -1.200326E-7 
 67 -0.6880 1.039000  1.221370E-5 
 68 -0.5733 1.278477  8.940802E-5 
 69 -0.8026 1.242293  7.973389E-5 
 70 -0.5733 1.291683  9.836421E-5 
 71 -0.5733 1.021955  7.585479E-6 
 72 -0.9173 1.011583  4.099532E-6 
 73 -0.5733 1.007779  2.819419E-6 
 74 -0.1529 1.005927  2.199717E-6 
 75 -0.9173 1.020226  7.684351E-6 
 76 -0.6497 1.456396  1.774671E-4 
 77 -0.6115 1.306364  1.219034E-4 
 78 -0.5733 1.053765  2.188731E-5 
 79 13.1478 1.000560  2.329913E-7 
 80 -7.8352 1.000809  3.446258E-7 
 81 12.4599 1.000231  1.005833E-7 
 82 13.7594 0.996497 -1.559375E-6 
 83 -9.9373 0.999287 -3.243763E-7 
 84 -13.9505 1.001493  6.940924E-7 
 85 -8.4467 1.003704  1.759974E-6 
 86 -9.4022 0.999402 -2.902698E-7 
 87 -7.0708 1.003628  1.799036E-6 
 88 15.3264 1.000042  2.113447E-8 
 89 -9.1729 1.003189  1.648765E-6 
 90 17.6961 1.002973  1.569211E-6 
 91 -10.5106 1.002186  1.177485E-6 
 92 -1.5670 1.001085  5.965250E-7 
 93 13.8740 1.002164  1.214102E-6 
 94 16.3201 1.001857  1.062756E-6 
 95 5.1598 1.001115  6.512788E-7 
 96 15.2882 0.999120 -5.240621E-7 
 97 -18.1547 0.999286 -4.333547E-7 
 98 11.7337 0.998521 -9.160615E-7 
 99 2.1021 1.000999  6.306628E-7 
100 14.6766 1.003289  2.116639E-6 
101 14.2180 0.998816 -7.768016E-7 
102 13.4536 1.003620  2.419458E-6 
103 -7.7970 0.998644 -9.232246E-7 
104 15.8615 1.002449  1.698475E-6 
105 -7.3001 1.001190  8.410104E-7 
106 18.3458 1.000778  5.598942E-7 
107 14.2562 0.999450 -4.033929E-7 
108 -19.1867 0.999345 -4.888639E-7 
109 13.4154 1.001152  8.751976E-7 
110 16.1290 1.001437  1.111221E-6 
111 -7.6059 1.002755  2.168587E-6 
112 -13.8358 0.998642 -1.088029E-6 
113 14.2562 0.998493 -1.228112E-6 
114 18.1547 0.999506 -4.094818E-7 
115 -7.9881 1.002744  2.314760E-6 
116 16.2437 1.001948  1.671510E-6 
117 -10.2431 1.003297  2.877101E-6 
118 14.5620 1.005407  4.799116E-6 
119 -9.8226 0.998765 -1.114457E-6 
120 -8.8289 0.999746 -2.330240E-7 
121 -6.5357 0.999315 -6.390521E-7 
122 -17.6961 1.001125  1.066484E-6 
123 15.7850 1.002298  2.214783E-6 
124 -11.1221 0.998490 -1.478953E-6 
125 -8.5232 1.000300  2.988848E-7 
126 15.0971 1.003482  3.521484E-6 
127 -11.9630 1.002915  2.995700E-6 
128 15.1735 1.000755  7.879092E-7 
129 -10.7782 1.000657  6.968475E-7 
130 -10.4342 1.000867  9.333444E-7 
131 -5.5802 1.000690  7.545243E-7 
132 13.7976 1.000030  3.348780E-8 
133 12.0777 1.006257  7.056317E-6 
134 19.0720 1.000199  2.274718E-7 
135 -17.3521 0.998918 -1.257263E-6 
136 -18.9956 1.002234  2.636182E-6 
137 -8.2556 1.002585  3.096125E-6 
138 -16.5877 1.000542  6.585033E-7 
139 -6.8415 0.999329 -8.282250E-7 
140 -9.5933 1.002294  2.871081E-6 
141 16.0526 0.999742 -3.272398E-7 
142 12.1541 1.000545  7.018275E-7 
143 15.4793 1.001469  1.920250E-6 
144 -9.1347 0.999576 -5.623423E-7 
145 13.4918 0.997101 -3.899058E-6 
146 18.9956 1.002372  3.236232E-6 
147 15.9761 1.001741  2.408058E-6 
148 -19.1484 0.998712 -1.807205E-6 
149 -5.4273 1.001259  1.791672E-6 
150 12.4599 1.002155  3.107812E-6 
151 -18.2311 1.001874  2.740431E-6 
152 18.0400 1.001264  1.873842E-6 
153 -9.2876 1.001397  2.099445E-6 
154 -7.4912 0.997271 -4.156338E-6 
155 15.7850 0.998108 -2.921431E-6 
156 -19.2631 1.000693  1.083842E-6 
157 -3.1341 1.002009  3.185953E-6 
158 -5.3126 1.002633  4.230610E-6 
159 -9.2493 0.999005 -1.620202E-6 
160 -9.5933 0.999457 -8.964616E-7 
161 -7.9881 0.998839 -1.940661E-6 
162 -14.2944 0.999031 -1.640856E-6 
163 13.2625 0.998886 -1.910946E-6 
164 17.0845 0.999151 -1.475052E-6 
165 -13.8740 1.003023  5.318048E-6 
166 12.5363 1.000876  1.560906E-6 
167 0.0382 1.000570  1.027844E-6 
168 1.6817 1.002447  4.471469E-6 
169 13.0714 1.000197  3.648357E-7 
170 18.9191 1.001616  3.028096E-6 
171 -9.0582 0.998163 -3.483703E-6 
172 13.2625 1.003975  7.633437E-6 
173 -1.2613 1.001620  3.148248E-6 
174 -7.5294 1.001459  2.870533E-6 
175 -7.6059 1.000375  7.461657E-7 
176 -14.5238 1.000690  1.391856E-6 
177 17.3521 1.005186  1.058148E-5 
178 17.9636 0.999597 -8.324410E-7 
179 16.8934 1.004926  1.029438E-5 
180 13.6065 1.002031  4.294521E-6 
181 19.4160 1.001109  2.372384E-6 
182 -5.2744 0.998621 -2.985148E-6 
183 -8.7525 0.998040 -4.294084E-6 
184 19.1484 1.000543  1.203790E-6 
185 17.2374 1.000458  1.025827E-6 
186 -7.8352 0.999527 -1.072325E-6 
187 -9.2876 0.999664 -7.706292E-7 
188 -16.4348 1.003821  8.866211E-6 
189 18.3458 1.000991  2.326859E-6 
190 12.1159 1.000971  2.304998E-6 
191 -3.1341 0.998887 -2.671533E-6 
192 -1.7199 1.006189  1.502389E-5 
193 15.3264 1.000951  2.335081E-6 
194 16.6641 1.001296  3.216220E-6 
195 17.4667 0.996903 -7.774568E-6 
196 -3.1341 0.998760 -3.146014E-6 
197 18.1547 1.000923  2.368335E-6 
198 -0.3822 1.003875  1.005184E-5 
199 16.7788 0.998636 -3.576764E-6 
200 4.7393 0.999451 -1.454785E-6 
201 -7.2619 1.001957  5.244865E-6 
202 15.7086 1.000274  7.411170E-7 
203 13.8358 1.002116  5.792822E-6 
204 -13.3007 1.000846  2.342037E-6 
205 15.9761 1.001449  4.053234E-6 
206 4.8540 0.997475 -7.136211E-6 
207 5.4655 1.005265  1.503899E-5 
208 -8.9818 0.999315 -1.976402E-6 
209 -18.4987 0.999967 -9.508996E-8 
210 -8.5614 1.000261  7.700891E-7 
211 -9.9373 1.000759  2.259083E-6 
212 -7.4530 0.998472 -4.596862E-6 
213 12.9567 1.000850  2.585338E-6 
214 -8.1410 1.000478  1.466895E-6 
215 -7.2619 0.998563 -4.458269E-6 
216 -8.1027 0.995673 -1.356285E-5 
217 14.1033 0.999652 -1.102758E-6 
218 -7.9498 0.997463 -8.112536E-6 
219 -7.8734 0.999056 -3.048631E-6 
220 -16.2055 1.001447  4.721607E-6 
221 15.4793 1.003227  1.063452E-5 
222 -5.1598 1.003505  1.166453E-5 
223 14.0269 0.998714 -4.323797E-6 
224 15.1735 0.998667 -4.526576E-6 
225 12.5745 0.997795 -7.558749E-6 
226 -8.8289 0.995547 -1.541441E-5 
227 16.0526 1.001115  3.897834E-6 
228 16.8552 0.996726 -1.155667E-5 
229 17.6196 1.001487  5.299425E-6 
230 1.7581 0.999714 -1.030013E-6 
231 -18.8427 1.000362  1.316728E-6 
232 -0.9555 1.002379  8.724677E-6 
233 18.2311 0.999146 -3.162157E-6 
234 -19.0338 1.002072  7.747074E-6 
235 14.2180 1.000795  2.998431E-6 
236 -10.5871 1.003597  1.370428E-5 
237 -17.0081 1.000296  1.137570E-6 
238 5.9624 0.995898 -1.592305E-5 
239 -11.3132 0.999736 -1.035462E-6 
240 -0.8408 0.995799 -1.661104E-5 
241 18.9573 0.999354 -2.578464E-6 
242 -7.0708 1.001658  6.678136E-6 
243 12.9949 1.003867  1.572096E-5 
244 -7.3765 1.000430  1.762301E-6 
245 -8.5996 1.001603  6.636882E-6 
246 13.7594 0.999656 -1.438970E-6 
247 13.9887 1.001907  8.041743E-6 
248 -8.9436 0.998944 -4.493659E-6 
249 16.1290 0.999339 -2.837076E-6 
