Filename:	Stare_91_20221214_12.hpl
System ID:	91
Number of gates:	250
Range gate length (m):	48.0
Gate length (pts):	16
Pulses/ray:	20000
No. of rays in file:	1
Scan type:	Stare
Focus range:	65535
Start time:	20221214 12:00:20.64
Resolution (m/s):	0.0382
Altitude of measurement (center of gate) = (range gate + 0.5) * Gate length
Data line 1: Decimal time (hours)  Azimuth (degrees)  Elevation (degrees) Pitch (degrees) Roll (degrees)
f9.6,1x,f6.2,1x,f6.2
Data line 2: Range Gate  Doppler (m/s)  Intensity (SNR + 1)  Beta (m-1 sr-1)
i3,1x,f6.4,1x,f8.6,1x,e12.6 - repeat for no. gates
****
12.00545278 360.00  90.00 -0.01 -0.00
  0 7.5676 0.986681 -7.503540E-7
  1 1.1466 1.006774  3.827563E-7
  2 1.4142 1.007401  4.201545E-7
  3 0.6880 1.010104  5.773627E-7
  4 -1.0702 1.004060  2.339431E-7
  5 0.0382 1.007636  4.444080E-7
  6 -0.3822 1.006610  3.892376E-7
  7 -0.4969 1.008675  5.176747E-7
  8 -0.3822 1.011998  7.267772E-7
  9 -0.5733 1.013769  8.478534E-7
 10 -0.2675 1.015113  9.473880E-7
 11 -0.2293 1.009023  5.765795E-7
 12 -0.3440 1.009993  6.517475E-7
 13 -0.0764 1.018258  1.216947E-6
 14 -0.3440 1.015388  1.049311E-6
 15 -0.2293 1.016966  1.184863E-6
 16 -0.1529 1.008983  6.431005E-7
 17 -0.3058 1.008156  5.990974E-7
 18 -0.1529 1.006994  5.275032E-7
 19 0.1911 1.004379  3.393667E-7
 20 1.2231 1.003529  2.812179E-7
 21 -16.7788 0.999232 -6.300555E-8
 22 0.4204 1.006348  5.357800E-7
 23 1.0320 1.007997  6.951537E-7
 24 -0.6115 1.006271  5.616250E-7
 25 3.3252 1.002642  2.438793E-7
 26 0.9937 1.004814  4.581436E-7
 27 -0.1529 1.002309  2.266099E-7
 28 -0.5733 1.000859  8.697258E-8
 29 -17.7343 0.998726 -1.330171E-7
 30 1.9492 0.995568 -4.773520E-7
 31 2.7137 1.002199  2.443795E-7
 32 -13.9122 1.000781  8.952961E-8
 33 2.6372 1.002747  3.250421E-7
 34 3.5545 0.999546 -5.541507E-8
 35 -0.1147 1.004754  5.987658E-7
 36 9.9373 1.000851  1.105587E-7
 37 -0.6115 1.005605  7.515211E-7
 38 -1.7581 1.005702  7.885902E-7
 39 -0.2675 1.003334  4.755330E-7
 40 -0.6880 1.008118  1.194185E-6
 41 -0.1147 1.012743  1.932802E-6
 42 -0.1911 1.011412  1.784632E-6
 43 0.1147 1.005048  8.136269E-7
 44 0.0382 1.006671  1.108242E-6
 45 0.1529 1.007800  1.335255E-6
 46 0.0764 1.005214  9.194867E-7
 47 -0.1529 1.003235  5.875377E-7
 48 0.0000 1.002668  4.989663E-7
 49 0.4586 0.997470 -4.873145E-7
 50 0.7262 1.003011  5.969652E-7
 51 0.3822 1.913900  1.864403E-4
 52 0.6115 4.216050  6.750484E-4
 53 0.8026 1.818895  1.768129E-4
 54 0.7262 1.142992  3.175208E-5
 55 -3.9367 1.003244  7.407212E-7
 56 0.6880 1.071955  1.688791E-5
 57 0.6497 1.149387  3.603365E-5
 58 0.6497 1.027108  6.718478E-6
 59 1.2231 1.002966  7.551996E-7
 60 -19.5689 1.003296  8.617887E-7
 61 10.3195 1.003355  9.006784E-7
 62 2.7137 1.003496  9.635796E-7
 63 -16.8934 1.001078  3.048184E-7
 64 -2.7137 1.003665  1.063732E-6
 65 -16.2437 1.003964  1.180403E-6
 66 3.0194 1.002165  6.611236E-7
 67 -11.7719 1.001184  3.708040E-7
 68 3.7456 1.000672  2.157825E-7
 69 3.6309 0.997714 -7.522229E-7
 70 7.1472 1.004965  1.674481E-6
 71 1.9875 1.000443  1.531647E-7
 72 17.8872 1.000195  6.907707E-8
 73 8.1792 1.003064  1.110435E-6
 74 0.3440 1.001635  6.067307E-7
 75 3.0959 1.000306  1.163036E-7
 76 0.9173 1.000741  2.881804E-7
 77 2.9430 1.001171  4.658305E-7
 78 1.1466 1.001028  4.185517E-7
 79 2.1021 1.002743  1.142379E-6
 80 -15.7086 1.003176  1.352382E-6
 81 3.2870 0.998511 -6.484086E-7
 82 -10.4724 1.003943  1.755560E-6
 83 1.3377 1.004297  1.955164E-6
 84 2.5608 1.001971  9.163681E-7
 85 -0.6880 1.001561  7.418260E-7
 86 18.6898 1.002423  1.176224E-6
 87 -17.0845 1.002999  1.486784E-6
 88 3.2105 1.002518  1.274765E-6
 89 -14.6766 0.997606 -1.237850E-6
 90 -17.3903 1.000982  5.185522E-7
 91 6.2682 1.002488  1.340370E-6
 92 3.3252 0.997109 -1.589760E-6
 93 8.6760 1.002704  1.516907E-6
 94 3.4398 1.000366  2.094256E-7
 95 11.9630 1.003987  2.327785E-6
 96 -18.0018 1.001440  8.578232E-7
 97 -9.7080 1.004918  2.986499E-6
 98 0.9555 1.002244  1.389729E-6
 99 1.8728 1.000741  4.678622E-7
100 2.4079 1.001387  8.922826E-7
101 -1.6435 1.004178  2.739889E-6
102 3.6309 1.001988  1.328711E-6
103 11.6572 1.004091  2.785337E-6
104 -5.6948 1.001349  9.358115E-7
105 1.5288 1.001587  1.121308E-6
106 -3.7456 0.998855 -8.237092E-7
107 8.9436 1.001667  1.221839E-6
108 0.3440 1.001733  1.293001E-6
109 -18.3840 1.003332  2.530903E-6
110 0.0000 1.002636  2.038021E-6
111 -0.4586 1.001177  9.263099E-7
112 -12.9567 0.999961 -3.160627E-8
113 5.6566 0.997466 -2.064992E-6
114 -2.8283 1.002308  1.914151E-6
115 0.7262 1.002333  1.968250E-6
116 4.5482 0.996177 -3.280518E-6
117 -16.0144 1.003255  2.840481E-6
118 -16.2819 0.999407 -5.265036E-7
119 7.5294 1.001096  9.890587E-7
120 -13.6065 1.003380  3.101173E-6
121 0.8026 1.003292  3.071184E-6
122 2.1021 1.001197  1.135248E-6
123 1.0702 0.998461 -1.483122E-6
124 1.6053 1.003660  3.585208E-6
125 1.0702 1.000430  4.275412E-7
126 3.1341 1.000168  1.696657E-7
127 -15.6704 1.003823  3.928487E-6
128 -17.3903 1.002022  2.110614E-6
129 1.7581 1.000659  6.989465E-7
130 2.7519 1.003176  3.420898E-6
131 2.9048 1.000382  4.173798E-7
132 -15.3264 0.998679 -1.467369E-6
133 16.7023 0.997732 -2.558108E-6
134 1.8728 0.998186 -2.076467E-6
135 12.2688 1.004118  4.787133E-6
136 -0.5733 1.003967  4.681225E-6
137 4.7393 1.000612  7.325632E-7
138 5.0833 1.004340  5.274938E-6
139 0.2293 1.003083  3.803015E-6
140 -2.5225 1.003087  3.864534E-6
141 12.8421 1.004164  5.288413E-6
142 -13.8740 0.998886 -1.434988E-6
143 2.5608 1.005170  6.758246E-6
144 2.3314 0.999833 -2.218565E-7
145 2.8665 1.001595  2.144892E-6
146 -12.0777 1.000375  5.118769E-7
147 -4.2807 1.003213  4.445878E-6
148 -17.0845 0.999182 -1.148287E-6
149 15.9379 1.001016  1.445067E-6
150 2.2168 1.004621  6.665430E-6
151 1.3377 1.001324  1.936290E-6
152 10.8546 1.001758  2.605522E-6
153 -12.8803 1.005374  8.076624E-6
154 0.1147 1.002157  3.285566E-6
155 2.4843 1.004684  7.231197E-6
156 0.9937 1.005380  8.417805E-6
157 -3.6309 1.001678  2.660754E-6
158 -14.3327 1.003229  5.188157E-6
159 9.3258 1.003212  5.228923E-6
160 2.9048 1.002970  4.898074E-6
161 1.3759 0.998621 -2.304849E-6
162 1.6435 0.999681 -5.393795E-7
163 -17.6961 1.004102  7.033937E-6
164 1.9492 0.996691 -5.748430E-6
165 18.1929 1.001241  2.182420E-6
166 0.2675 1.000913  1.627203E-6
167 -8.9818 0.998792 -2.179595E-6
168 15.4793 1.001015  1.855148E-6
169 8.0645 0.999245 -1.397693E-6
170 1.4142 1.000510  9.546094E-7
171 10.1666 1.004813  9.129262E-6
172 1.6053 1.000410  7.881044E-7
173 18.4987 1.000748  1.454995E-6
174 -2.2932 1.004916  9.673015E-6
175 0.5351 0.998272 -3.441327E-6
176 7.3383 1.000075  1.518319E-7
177 4.0131 0.999848 -3.092345E-7
178 9.1729 0.999342 -1.358140E-6
179 -15.1735 0.998912 -2.273222E-6
180 -14.6766 0.999797 -4.286558E-7
181 3.8220 0.999262 -1.579028E-6
182 0.0000 0.999322 -1.467074E-6
183 1.6435 1.001624  3.558254E-6
184 9.6698 1.001128  2.498709E-6
185 -3.2487 1.002354  5.276932E-6
186 13.1478 1.003008  6.821382E-6
187 -17.6578 0.999151 -1.946508E-6
188 -12.7274 1.000972  2.254746E-6
189 0.4204 1.001198  2.810796E-6
190 2.5990 1.001369  3.250008E-6
191 -16.5112 1.002390  5.737722E-6
192 18.8427 1.000299  7.256477E-7
193 -16.2055 1.003352  8.229316E-6
194 -12.6127 1.002177  5.404236E-6
195 -0.9555 1.001147  2.879662E-6
196 1.9492 1.001851  4.698476E-6
197 -16.8552 0.999788 -5.440853E-7
198 1.1848 0.999066 -2.423600E-6
199 3.4781 1.000412  1.080269E-6
200 -4.5100 1.000483  1.281720E-6
201 3.4016 1.000271  7.256987E-7
202 0.0000 0.999780 -5.951353E-7
203 -15.1353 1.000486  1.329364E-6
204 1.0320 1.002035  5.631694E-6
205 -0.1529 1.001677  4.690780E-6
206 1.4524 1.002659  7.516114E-6
207 8.6378 1.004741  1.354124E-5
208 9.7844 1.003235  9.338525E-6
209 -9.7462 0.999738 -7.655813E-7
210 -1.6817 1.000459  1.353488E-6
211 11.1221 1.001981  5.900566E-6
212 2.4079 1.001970  5.926377E-6
213 -15.4028 1.000753  2.288414E-6
214 11.8101 0.999732 -8.221306E-7
215 12.0394 1.000291  9.029801E-7
216 1.3377 0.997553 -7.670968E-6
217 -16.5494 1.004071  1.288935E-5
218 1.1466 1.004380  1.400691E-5
219 3.8603 0.999460 -1.745424E-6
220 -14.4473 1.002727  8.896848E-6
221 -16.7788 0.999819 -5.970169E-7
222 1.3759 1.003419  1.138107E-5
223 -19.3013 1.006567  2.207553E-5
224 2.4461 1.001055  3.582483E-6
225 -13.3771 0.999924 -2.596587E-7
226 -18.2311 0.997494 -8.674916E-6
227 0.4586 1.002428  8.487703E-6
228 -18.4987 0.998753 -4.402174E-6
229 0.2293 0.998765 -4.400014E-6
230 -15.0206 1.005023  1.807695E-5
231 1.9875 0.998651 -4.901553E-6
232 -16.3966 0.999237 -2.799809E-6
233 10.0902 1.000418  1.549047E-6
234 4.8922 0.999350 -2.429354E-6
235 1.2613 1.001481  5.590289E-6
236 -2.2932 1.000027  1.047014E-7
237 1.2995 1.001243  4.779599E-6
238 0.2675 1.006144  2.384700E-5
239 4.8540 0.999410 -2.311790E-6
240 2.9812 0.999548 -1.787118E-6
241 1.6817 1.003241  1.293464E-5
242 1.2231 1.001485  5.982173E-6
243 1.2231 1.002886  1.173251E-5
244 9.2493 1.001541  6.323152E-6
245 -17.3903 1.002217  9.177324E-6
246 -1.2231 1.000595  2.486457E-6
247 0.9173 1.003850  1.623128E-5
248 -15.1353 0.998631 -5.824764E-6
249 -19.1484 1.005306  2.277652E-5
